# *CALIBRATION************
# Voff:  -0.000557, -0.000502, 0.000355
# Oe*Vref/V:  18766.300781, 19118.269531, 18920.400390
# mV/Vref/Oe:  0.053287, 0.052306, 0.052853
# Hrel:  0.000000, 0.000000, 0.000000
# ADC Vref:  4.000000
# ADC Bits:  16
# ADC samples:  10
# ADC Speed:  4
# Linearization
# A0:  0.000000, 0.000000, 0.000000
# A1:  1.000000, 1.000000, 1.000000
# A2:  0.000000, 0.000000, 0.000000
# A3:  0.222500, 0.222500, 0.222500
# A4:  0.000000, 0.000000, 0.000000
# A5:  3.403000, 3.403000, 3.403000
# Orthogonalization
# 1.000000, 0.000000, 0.000000
# 0.000000, 1.000000, 0.000000
# 0.000000, 0.000000, 1.000000
# EEPROM Cal Valid, Valid, Valid
# EEPROM Lin Valid, Valid, Valid
# EEPROM Ortho Not Valid
# Sensor ID:   USB25103-1715507101             
# Software Version:  MDTUSBMAG3D.V9.20220510
# ************************
# 
# SENSOR_NB_SAMPLE: 10 
# SENSOR_GAIN: 1 
# SENSOR_READ_DELAY: 0.7 
# SENSOR_Oe_mT: 0.1 
# working dist: 1 mm
# Rotation step angle: 49.2°
# sensor pos #1: 16 mm
# sensor pos #2: 66 mm
# sensor pos #3: 77 mm
#
# angle[°]; X1_magn [mT]; Y1_magn [mT]; Z1_magn [mT]; X2_magn [mT]; Y2_magn [mT]; Z2_magn [mT]; X3_magn [mT]; Y3_magn [mT]; Z3_magn [mT]
  0.0;  -42.926000;   -7.543100;  -15.847000;  -49.181000;    0.006811;  -14.430000;  -49.863000;    2.292400;  -13.229000
 49.2;   30.658000;   -0.053307;   28.607000;   29.271000;    1.564700;   29.750000;   21.784000;    5.437200;   28.170000
 98.4;    6.113700;    0.359680;  -32.940000;   -1.355900;   -1.250400;  -37.121000;   -3.042300;   -1.004700;  -36.353000
147.6;  -26.100000;    2.978000;   31.328000;  -27.530000;    1.988100;   31.541000;  -31.832000;   -4.176100;   26.203000
196.8;   47.905000;    8.580900;  -12.387000;   47.580000;   -0.601460;  -17.424000;   46.758000;   -2.760100;  -17.944000
246.0;  -53.028000;    2.929100;   -2.481700;  -52.915000;    0.466840;   -3.465400;  -48.675000;   -8.227900;   -6.286500
295.2;   34.592000;    7.466700;   21.959000;   41.544000;    1.188600;   21.941000;   42.611000;   -0.993160;   20.734000
344.4;  -19.240000;   -0.043225;  -33.792000;  -17.624000;   -1.132400;  -34.771000;   -9.486600;   -2.407600;  -31.814000
