# *CALIBRATION************
# Voff:  -0.000557, -0.000502, 0.000355
# Oe*Vref/V:  18766.300781, 19118.269531, 18920.400390
# mV/Vref/Oe:  0.053287, 0.052306, 0.052853
# Hrel:  0.000000, 0.000000, 0.000000
# ADC Vref:  4.000000
# ADC Bits:  16
# ADC samples:  10
# ADC Speed:  4
# Linearization
# A0:  0.000000, 0.000000, 0.000000
# A1:  1.000000, 1.000000, 1.000000
# A2:  0.000000, 0.000000, 0.000000
# A3:  0.222500, 0.222500, 0.222500
# A4:  0.000000, 0.000000, 0.000000
# A5:  3.403000, 3.403000, 3.403000
# Orthogonalization
# 1.000000, 0.000000, 0.000000
# 0.000000, 1.000000, 0.000000
# 0.000000, 0.000000, 1.000000
# EEPROM Cal Valid, Valid, Valid
# EEPROM Lin Valid, Valid, Valid
# EEPROM Ortho Not Valid
# Sensor ID:   USB25103-1715507101             
# Software Version:  MDTUSBMAG3D.V9.20220510
# ************************
# 
# SENSOR_NB_SAMPLE: 10 
# SENSOR_GAIN: 1 
# SENSOR_READ_DELAY: 0.7 
# SENSOR_Oe_mT: 0.1 
# working dist: 20 mm
# Rotation step angle: 2.4°
# sensor pos #1: 10 mm
# sensor pos #2: 40 mm
# sensor pos #3: 60 mm
#
# angle[°]; X1_magn [mT]; Y1_magn [mT]; Z1_magn [mT]; X2_magn [mT]; Y2_magn [mT]; Z2_magn [mT]; X3_magn [mT]; Y3_magn [mT]; Z3_magn [mT]
  0.0;   26.591000;    7.185500;   23.725000;   31.603000;    4.016800;   26.899000;   34.352000;    2.123300;   26.328000
  2.4;   39.107000;    2.049300;   23.041000;   36.575000;    4.190100;   23.808000;   31.450000;    8.134000;   21.271000
  4.8;   35.937000;    9.079800;   18.371000;   41.052000;    4.309200;   20.261000;   43.331000;    1.952200;   19.264000
  7.2;   46.678000;    1.818200;   15.297000;   44.727000;    4.366300;   16.458000;   39.697000;    9.796000;   15.297000
  9.6;   42.911000;   10.414000;   11.787000;   47.692000;    4.351000;   12.259000;   49.235000;    1.682300;   10.923000
 12.0;   50.871000;    1.495200;    6.498100;   49.711000;    4.275900;    7.937100;   45.328000;   10.816000;    8.189500
 14.4;   46.906000;   11.119000;    4.462300;   50.953000;    4.114600;    3.546600;   51.752000;    1.252900;    2.002300
 16.8;   51.856000;    1.037000;   -2.610600;   51.385000;    3.974200;   -0.982090;   47.831000;   11.191000;    0.611740
 19.2;   47.970000;   11.144000;   -3.216700;   51.115000;    3.742300;   -5.453500;   51.213000;    0.876840;   -7.124600
 21.6;   49.845000;    0.646080;  -11.633000;   50.096000;    3.464500;   -9.900600;   47.385000;   10.967000;   -6.993400
 24.0;   46.186000;   10.621000;  -10.571000;   48.384000;    3.149000;  -14.113000;   47.743000;    0.405610;  -15.899000
 26.4;   44.742000;    0.171480;  -19.997000;   45.802000;    2.789000;  -18.197000;   44.322000;   10.078000;  -14.110000
 28.8;   41.600000;    9.372200;  -17.494000;   42.391000;    2.342100;  -22.085000;   40.906000;   -0.052934;  -23.805000
 31.2;   36.498000;   -0.281460;  -27.102000;   38.321000;    1.913800;  -25.446000;   38.321000;    8.507800;  -20.522000
 33.6;   34.202000;    7.526100;  -23.271000;   33.546000;    1.467200;  -28.482000;   31.405000;   -0.492800;  -30.031000
 36.0;   25.978000;   -0.680250;  -32.441000;   28.337000;    0.952640;  -31.038000;   29.625000;    6.443900;  -25.576000
 38.4;   24.671000;    5.284900;  -27.475000;   22.795000;    0.484390;  -33.051000;   20.159000;   -0.858740;  -34.366000
 40.8;   13.923000;   -1.010000;  -35.718000;   16.735000;   -0.050320;  -34.609000;   19.257000;    3.999600;  -28.936000
 43.2;   13.724000;    2.710300;  -29.950000;   10.679000;   -0.509230;  -35.583000;    7.670300;   -1.151500;  -36.499000
 45.6;    1.133300;   -1.260900;  -36.734000;    4.223100;   -1.005900;  -36.006000;    7.784300;    1.348500;  -30.533000
 48.0;    1.892300;    0.021000;  -30.483000;   -2.063600;   -1.443500;  -35.879000;   -5.255700;   -1.357600;  -36.434000
 50.4;  -11.659000;   -1.406900;  -35.556000;   -8.474300;   -1.854200;  -35.222000;   -4.053500;   -1.377000;  -30.157000
 52.8;  -10.034000;   -2.705600;  -29.323000;  -14.830000;   -2.235100;  -34.024000;  -18.027000;   -1.449100;  -34.148000
 55.2;  -23.933000;   -1.446100;  -32.244000;  -20.813000;   -2.591700;  -32.337000;  -15.781000;   -3.955800;  -28.092000
 57.6;  -21.416000;   -5.173100;  -26.353000;  -26.657000;   -2.881100;  -30.115000;  -29.700000;   -1.428900;  -29.789000
 60.0;  -34.918000;   -1.354600;  -26.911000;  -32.073000;   -3.080900;  -27.440000;  -26.576000;   -6.285100;  -24.235000
 62.4;  -31.379000;   -7.305200;  -21.744000;  -36.944000;   -3.270600;  -24.394000;  -39.669000;   -1.244800;  -23.624000
 64.8;  -43.873000;   -1.115300;  -19.822000;  -41.398000;   -3.397900;  -20.795000;  -35.885000;   -8.153600;  -18.901000
 67.2;  -39.638000;   -8.882100;  -15.790000;  -45.041000;   -3.444200;  -17.025000;  -47.151000;   -1.027100;  -15.859000
 69.6;  -49.672000;   -0.866580;  -11.509000;  -47.978000;   -3.412800;  -12.803000;  -42.824000;   -9.465400;  -12.303000
 72.0;  -45.255000;   -9.833600;   -8.711000;  -50.038000;   -3.307500;   -8.503700;  -51.335000;   -0.630960;   -7.041800
 74.4;  -52.145000;   -0.409910;   -2.576300;  -51.197000;   -3.173500;   -4.091800;  -46.845000;  -10.096000;   -4.975700
 76.8;  -47.701000;  -10.198000;   -1.157600;  -51.642000;   -2.954300;    0.384470;  -52.253000;   -0.191470;    1.985700
 79.2;  -51.637000;    0.028468;    6.385400;  -51.361000;   -2.757100;    4.725800;  -47.896000;  -10.084000;    2.563600
 81.6;  -47.378000;   -9.849200;    6.336300;  -50.383000;   -2.454700;    9.136300;  -50.299000;    0.261850;   10.853000
 84.0;  -48.130000;    0.487380;   15.143000;  -48.625000;   -2.089100;   13.404000;  -46.182000;   -9.530700;    9.962200
 86.4;  -44.271000;   -8.985200;   13.492000;  -46.089000;   -1.736200;   17.443000;  -45.161000;    0.730090;   19.203000
 88.8;  -41.263000;    0.955630;   23.029000;  -42.606000;   -1.318000;   21.325000;  -41.561000;   -8.273100;   16.901000
 91.2;  -38.204000;   -7.452000;   19.891000;  -38.585000;   -0.881140;   24.683000;  -36.859000;    1.168100;   26.275000
 93.6;  -31.753000;    1.393600;   29.229000;  -33.736000;   -0.382650;   27.753000;  -34.057000;   -6.497900;   22.651000
 96.0;  -29.446000;   -5.435900;   24.920000;  -28.557000;    0.076264;   30.275000;  -26.282000;    1.566500;   31.649000
 98.4;  -20.465000;    1.731200;   33.532000;  -22.979000;    0.572520;   32.315000;  -24.516000;   -4.248500;   26.895000
100.8;  -19.084000;   -2.949800;   28.386000;  -16.981000;    1.049700;   33.859000;  -14.264000;    1.888000;   34.883000
103.2;   -8.039200;    2.022400;   35.675000;  -10.870000;    1.540000;   34.837000;  -13.549000;   -1.657400;   29.384000
105.6;   -7.571500;   -0.276600;   29.946000;   -4.410500;    1.997400;   35.278000;   -1.486300;    2.119500;   35.922000
108.0;    4.963500;    2.209500;   35.622000;    2.008500;    2.417500;   35.183000;   -1.615400;    1.052700;   30.034000
110.4;    4.335300;    2.418600;   29.663000;    8.366000;    2.840200;   34.536000;   11.405000;    2.246900;   34.797000
112.8;   17.821000;    2.266700;   33.367000;   14.841000;    3.200900;   33.348000;   10.414000;    3.719200;   28.833000
115.2;   16.137000;    4.978300;   27.567000;   20.803000;    3.532900;   31.663000;   23.748000;    2.256200;   31.480000
117.6;   29.474000;    2.207700;   29.023000;   26.723000;    3.792400;   29.431000;   21.809000;    6.153800;   25.821000
120.0;   27.047000;    7.251600;   23.707000;   32.054000;    4.010800;   26.783000;   34.707000;    2.143100;   26.157000
122.4;   39.449000;    2.044100;   22.818000;   37.026000;    4.160600;   23.649000;   31.868000;    8.255000;   21.187000
124.8;   36.315000;    9.169100;   18.268000;   41.430000;    4.308400;   20.075000;   43.596000;    1.952600;   19.033000
127.2;   46.880000;    1.811800;   15.036000;   45.052000;    4.330100;   16.261000;   40.081000;    9.854300;   15.146000
129.6;   43.264000;   10.482000;   11.618000;   47.977000;    4.310700;   12.028000;   49.396000;    1.600900;   10.647000
132.0;   50.987000;    1.400400;    6.193600;   49.945000;    4.225900;    7.682500;   45.630000;   10.856000;    7.986300
134.4;   47.179000;   11.129000;    4.216600;   51.122000;    4.076900;    3.249100;   51.769000;    1.221100;    1.710700
136.8;   51.837000;    1.013900;   -2.862700;   51.509000;    3.920100;   -1.244800;   48.012000;   11.271000;    0.383360
139.2;   48.131000;   11.222000;   -3.324600;   51.235000;    3.688900;   -5.585800;   51.214000;    0.785730;   -7.278300
141.6;   49.807000;    0.566540;  -11.790000;   50.193000;    3.410400;  -10.051000;   47.593000;   11.000000;   -7.126100
144.0;   46.363000;   10.653000;  -10.722000;   48.458000;    3.090400;  -14.266000;   47.668000;    0.355570;  -16.036000
146.4;   44.648000;    0.116220;  -20.120000;   45.846000;    2.710300;  -18.348000;   44.500000;   10.069000;  -14.306000
148.8;   41.743000;    9.372900;  -17.699000;   42.406000;    2.322300;  -22.201000;   40.788000;   -0.109690;  -23.911000
151.2;   36.367000;   -0.321780;  -27.189000;   38.309000;    1.848800;  -25.622000;   38.343000;    8.591000;  -20.645000
153.6;   34.152000;    7.600700;  -23.413000;   33.502000;    1.405200;  -28.635000;   31.231000;   -0.527900;  -30.115000
156.0;   25.806000;   -0.716100;  -32.501000;   28.288000;    0.922400;  -31.145000;   29.561000;    6.511500;  -25.700000
158.4;   24.563000;    5.302800;  -27.614000;   22.699000;    0.443690;  -33.194000;   19.996000;   -0.887490;  -34.392000
160.8;   13.794000;   -1.037600;  -35.733000;   16.675000;   -0.041732;  -34.686000;   19.156000;    4.053000;  -29.092000
163.2;   13.593000;    2.728600;  -30.075000;   10.587000;   -0.517070;  -35.653000;    7.546800;   -1.149600;  -36.510000
165.6;    1.002000;   -1.247100;  -36.719000;    4.085600;   -0.987190;  -36.061000;    7.613500;    1.380900;  -30.609000
168.0;    1.687800;    0.029962;  -30.639000;   -2.220900;   -1.427800;  -35.926000;   -5.387300;   -1.336700;  -36.378000
170.4;  -11.772000;   -1.371400;  -35.495000;   -8.619800;   -1.810200;  -35.231000;   -4.329900;   -1.314700;  -30.335000
172.8;  -10.358000;   -2.636900;  -29.460000;  -14.994000;   -2.188100;  -34.011000;  -18.135000;   -1.371800;  -34.063000
175.2;  -23.991000;   -1.355700;  -32.149000;  -20.979000;   -2.485300;  -32.320000;  -16.015000;   -3.905000;  -28.136000
177.6;  -21.660000;   -5.132700;  -26.370000;  -26.821000;   -2.754900;  -30.087000;  -29.716000;   -1.305000;  -29.689000
180.0;  -34.899000;   -1.216500;  -26.808000;  -32.179000;   -2.977100;  -27.401000;  -26.890000;   -6.189500;  -24.258000
182.4;  -31.700000;   -7.177900;  -21.739000;  -37.068000;   -3.143600;  -24.301000;  -39.617000;   -1.123900;  -23.509000
184.8;  -43.763000;   -1.000600;  -19.730000;  -41.506000;   -3.230200;  -20.720000;  -36.061000;   -8.101300;  -18.819000
187.2;  -39.774000;   -8.842900;  -15.696000;  -45.125000;   -3.269400;  -16.932000;  -47.055000;   -0.867330;  -15.779000
189.6;  -49.570000;   -0.682490;  -11.412000;  -48.030000;   -3.256000;  -12.702000;  -42.958000;   -9.407900;  -12.194000
192.0;  -45.270000;   -9.839200;   -8.579100;  -50.011000;   -3.216800;   -8.435400;  -51.164000;   -0.530140;   -7.029600
194.4;  -51.969000;   -0.330000;   -2.561900;  -51.176000;   -3.075600;   -4.035600;  -46.820000;  -10.108000;   -4.870800
196.8;  -47.641000;  -10.223000;   -1.043400;  -51.596000;   -2.881100;    0.438050;  -52.061000;   -0.112310;    1.969400
199.2;  -51.480000;    0.092320;    6.344000;  -51.316000;   -2.650000;    4.753200;  -47.802000;  -10.122000;    2.637200
201.6;  -47.263000;   -9.915300;    6.411700;  -50.332000;   -2.399800;    9.136300;  -50.130000;    0.301800;   10.787000
204.0;  -47.987000;    0.527340;   15.044000;  -48.570000;   -2.054800;   13.379000;  -46.078000;   -9.512000;   10.021000
206.4;  -44.137000;   -8.995600;   13.535000;  -46.035000;   -1.689200;   17.430000;  -45.052000;    0.773040;   19.090000
208.8;  -41.192000;    0.993340;   22.898000;  -42.577000;   -1.275500;   21.290000;  -41.364000;   -8.323100;   16.881000
211.2;  -38.021000;   -7.512400;   19.855000;  -38.568000;   -0.840440;   24.643000;  -36.836000;    1.190900;   26.143000
213.6;  -31.764000;    1.396200;   29.076000;  -33.758000;   -0.390860;   27.691000;  -33.894000;   -6.532600;   22.591000
216.0;  -29.339000;   -5.474800;   24.859000;  -28.593000;    0.088213;   30.214000;  -26.379000;    1.575900;   31.472000
218.4;  -20.611000;    1.740900;   33.359000;  -23.033000;    0.545630;   32.219000;  -24.416000;   -4.282500;   26.752000
220.8;  -19.029000;   -3.009900;   28.241000;  -17.055000;    1.030700;   33.763000;  -14.404000;    1.892100;   34.759000
223.2;   -8.185100;    1.992200;   35.561000;  -10.919000;    1.480300;   34.754000;  -13.491000;   -1.707900;   29.251000
225.6;   -7.572900;   -0.335230;   29.805000;   -4.515300;    1.963100;   35.221000;   -1.682800;    2.096000;   35.833000
228.0;    4.731100;    2.164000;   35.552000;    1.864100;    2.385400;   35.112000;   -1.647200;    1.024300;   29.917000
230.4;    4.292000;    2.385000;   29.552000;    8.213900;    2.790900;   34.477000;   11.139000;    2.214000;   34.727000
232.8;   17.534000;    2.227400;   33.329000;   14.667000;    3.162400;   33.295000;   10.316000;    3.691600;   28.718000
235.2;   16.026000;    4.954000;   27.456000;   20.634000;    3.504500;   31.626000;   23.524000;    2.179600;   31.474000
237.6;   29.278000;    2.126600;   29.037000;   26.555000;    3.765100;   29.405000;   21.639000;    6.163900;   25.695000
240.0;   26.844000;    7.270700;   23.577000;   31.903000;    4.013400;   26.765000;   34.509000;    2.091500;   26.194000
242.4;   39.264000;    1.984000;   22.883000;   36.891000;    4.175500;   23.657000;   31.682000;    8.269900;   21.098000
244.8;   36.108000;    9.154100;   18.191000;   41.292000;    4.308400;   20.097000;   43.437000;    1.892500;   19.110000
247.2;   46.749000;    1.739400;   15.146000;   44.947000;    4.347300;   16.305000;   39.813000;    9.905400;   15.086000
249.6;   42.978000;   10.517000;   11.600000;   47.854000;    4.375300;   12.073000;   49.306000;    1.575100;   10.770000
252.0;   50.925000;    1.386500;    6.342200;   49.855000;    4.289800;    7.770500;   45.342000;   10.920000;    7.987400
254.4;   46.882000;   11.197000;    4.246900;   51.074000;    4.114300;    3.333800;   51.765000;    1.213700;    1.838600
256.8;   51.835000;    1.012000;   -2.728900;   51.472000;    3.983200;   -1.162800;   47.732000;   11.290000;    0.434730
259.2;   47.839000;   11.246000;   -3.247400;   51.158000;    3.803200;   -5.470500;   51.220000;    0.823440;   -7.121300
261.6;   49.842000;    0.596790;  -11.613000;   50.149000;    3.521300;   -9.900200;   47.313000;   11.052000;   -7.017100
264.0;   46.078000;   10.749000;  -10.617000;   48.439000;    3.199000;  -14.154000;   47.729000;    0.408970;  -15.868000
266.4;   44.740000;    0.177460;  -19.950000;   45.837000;    2.833500;  -18.219000;   44.258000;   10.102000;  -14.173000
268.8;   41.514000;    9.395400;  -17.551000;   42.414000;    2.399600;  -22.096000;   40.906000;   -0.096996;  -23.822000
271.2;   36.509000;   -0.295650;  -27.106000;   38.344000;    1.960100;  -25.479000;   38.140000;    8.639600;  -20.502000
273.6;   34.019000;    7.633600;  -23.255000;   33.551000;    1.512700;  -28.512000;   31.401000;   -0.478610;  -30.026000
276.0;   25.995000;   -0.642910;  -32.412000;   28.336000;    1.037400;  -31.023000;   29.465000;    6.576500;  -25.532000
278.4;   24.518000;    5.396200;  -27.428000;   22.801000;    0.544890;  -33.043000;   20.216000;   -0.813930;  -34.296000
280.8;   13.993000;   -0.977480;  -35.665000;   16.747000;    0.031455;  -34.588000;   19.115000;    4.074300;  -28.888000
283.2;   13.598000;    2.725200;  -29.894000;   10.682000;   -0.465540;  -35.555000;    7.753900;   -1.100700;  -36.456000
285.6;    1.226000;   -1.200000;  -36.705000;    4.228200;   -0.917740;  -35.981000;    7.684600;    1.419400;  -30.461000
288.0;    1.772500;    0.044898;  -30.516000;   -2.097300;   -1.359800;  -35.872000;   -5.159700;   -1.264600;  -36.388000
290.4;  -11.547000;   -1.310600;  -35.523000;   -8.476100;   -1.762400;  -35.215000;   -4.138200;   -1.310900;  -30.152000
292.8;  -10.133000;   -2.661200;  -29.312000;  -14.844000;   -2.148100;  -34.015000;  -17.937000;   -1.338600;  -34.114000
295.2;  -23.811000;   -1.327000;  -32.231000;  -20.798000;   -2.495400;  -32.321000;  -15.820000;   -3.868400;  -28.067000
297.6;  -21.432000;   -5.093500;  -26.323000;  -26.645000;   -2.775000;  -30.113000;  -29.560000;   -1.310200;  -29.810000
300.0;  -34.778000;   -1.243700;  -26.932000;  -32.019000;   -3.029000;  -27.452000;  -26.627000;   -6.199500;  -24.230000
302.4;  -31.412000;   -7.194700;  -21.726000;  -36.944000;   -3.198900;  -24.376000;  -39.537000;   -1.156700;  -23.660000
304.8;  -43.753000;   -1.045800;  -19.880000;  -41.430000;   -3.273900;  -20.803000;  -35.822000;   -8.077000;  -18.832000
307.2;  -39.525000;   -8.823500;  -15.731000;  -45.006000;   -3.398600;  -17.024000;  -47.050000;   -0.926700;  -15.940000
309.6;  -49.625000;   -0.757920;  -11.578000;  -47.941000;   -3.401600;  -12.820000;  -42.714000;   -9.387700;  -12.258000
312.0;  -44.997000;   -9.855600;   -8.678500;  -49.967000;   -3.337400;   -8.566500;  -51.277000;   -0.576450;   -7.188900
314.4;  -52.126000;   -0.389740;   -2.690100;  -51.177000;   -3.195900;   -4.147600;  -46.598000;  -10.104000;   -4.960600
316.8;  -47.435000;  -10.212000;   -1.151700;  -51.617000;   -3.009900;    0.328300;  -52.247000;   -0.200430;    1.857500
319.2;  -51.658000;    0.009425;    6.242400;  -51.357000;   -2.763800;    4.664800;  -47.615000;  -10.135000;    2.532600
321.6;  -47.102000;   -9.911200;    6.296700;  -50.389000;   -2.519600;    9.049800;  -50.336000;    0.259980;   10.732000
324.0;  -48.214000;    0.480290;   15.031000;  -48.633000;   -2.178700;   13.314000;  -45.913000;   -9.569600;    9.904200
326.4;  -44.019000;   -9.022900;   13.406000;  -46.107000;   -1.823200;   17.358000;  -45.262000;    0.680800;   19.058000
328.8;  -41.389000;    0.908210;   22.884000;  -42.646000;   -1.393500;   21.228000;  -41.333000;   -8.343300;   16.791000
331.2;  -37.998000;   -7.476200;   19.780000;  -38.618000;   -0.951340;   24.591000;  -37.018000;    1.125200;   26.151000
333.6;  -31.918000;    1.339500;   29.113000;  -33.805000;   -0.483090;   27.662000;  -33.907000;   -6.510600;   22.528000
336.0;  -29.371000;   -5.413900;   24.816000;  -28.653000;    0.020253;   30.185000;  -26.479000;    1.517600;   31.509000
338.4;  -20.683000;    1.691200;   33.419000;  -23.076000;    0.503060;   32.209000;  -24.430000;   -4.264900;   26.720000
340.8;  -19.041000;   -2.974400;   28.218000;  -17.071000;    0.994090;   33.793000;  -14.419000;    1.846200;   34.856000
343.2;   -8.173700;    1.967200;   35.654000;  -10.968000;    1.486200;   34.748000;  -13.534000;   -1.706000;   29.245000
345.6;   -7.606700;   -0.332990;   29.831000;   -4.556000;    1.957100;   35.196000;   -1.646500;    2.070200;   35.901000
348.0;    4.793400;    2.150500;   35.618000;    1.816500;    2.383500;   35.098000;   -1.695300;    1.018700;   29.930000
350.4;    4.247300;    2.352200;   29.568000;    8.207300;    2.796100;   34.486000;   11.210000;    2.206900;   34.763000
352.8;   17.627000;    2.245000;   33.367000;   14.626000;    3.182600;   33.292000;   10.254000;    3.675900;   28.718000
355.2;   15.954000;    4.934300;   27.472000;   20.594000;    3.514600;   31.638000;   23.556000;    2.237900;   31.509000
357.6;   29.320000;    2.201700;   29.069000;   26.491000;    3.801000;   29.425000;   21.617000;    6.112300;   25.760000
