# *CALIBRATION************
# Voff:  -0.000557, -0.000502, 0.000355
# Oe*Vref/V:  18766.300781, 19118.269531, 18920.400390
# mV/Vref/Oe:  0.053287, 0.052306, 0.052853
# Hrel:  0.000000, 0.000000, 0.000000
# ADC Vref:  4.000000
# ADC Bits:  16
# ADC samples:  10
# ADC Speed:  4
# Linearization
# A0:  0.000000, 0.000000, 0.000000
# A1:  1.000000, 1.000000, 1.000000
# A2:  0.000000, 0.000000, 0.000000
# A3:  0.222500, 0.222500, 0.222500
# A4:  0.000000, 0.000000, 0.000000
# A5:  3.403000, 3.403000, 3.403000
# Orthogonalization
# 1.000000, 0.000000, 0.000000
# 0.000000, 1.000000, 0.000000
# 0.000000, 0.000000, 1.000000
# EEPROM Cal Valid, Valid, Valid
# EEPROM Lin Valid, Valid, Valid
# EEPROM Ortho Not Valid
# Sensor ID:   USB25103-1715507101             
# Software Version:  MDTUSBMAG3D.V9.20220510
# ************************
# 
# SENSOR_NB_SAMPLE: 10 
# SENSOR_GAIN: 1 
# SENSOR_READ_DELAY: 0.7 
# SENSOR_Oe_mT: 0.1 
# working dist: 5 mm
# Rotation step angle: 2.4°
# sensor pos #1: 0 mm
# sensor pos #2: 15 mm
# sensor pos #3: 30 mm
# sensor pos #4: 45 mm
# sensor pos #5: 60 mm
# sensor pos #6: 75 mm
# sensor pos #7: 90 mm
#
# ZPos#; a[°]; X1_magn[mT]; Y1_magn[mT]; Z1_magn[mT]
 1;  0.0; -114.810000;   36.271000;    6.294900
 1;  2.4; -114.390000;   36.399000;   -0.793620
 1;  4.8; -115.490000;   36.282000;   -7.663800
 1;  7.2; -117.760000;   35.841000;  -15.429000
 1;  9.6; -119.700000;   34.838000;  -24.643000
 1; 12.0; -116.180000;   33.146000;  -34.738000
 1; 14.4;  -98.568000;   30.410000;  -44.312000
 1; 16.8;  -75.812000;   27.100000;  -50.325000
 1; 19.2;  -65.701000;   23.531000;  -53.684000
 1; 21.6;  -65.842000;   19.941000;  -57.518000
 1; 24.0;  -58.893000;   15.988000;  -63.177000
 1; 26.4;  -33.339000;   11.367000;  -68.056000
 1; 28.8;   -8.142500;    6.706100;  -69.105000
 1; 31.2;    0.003240;    2.038900;  -68.025000
 1; 33.6;    2.525300;   -2.497200;  -68.208000
 1; 36.0;   19.454000;   -7.108400;  -69.255000
 1; 38.4;   49.024000;  -11.906000;  -67.628000
 1; 40.8;   65.576000;  -16.213000;  -62.398000
 1; 43.2;   66.635000;  -20.082000;  -56.757000
 1; 45.6;   70.085000;  -23.707000;  -53.128000
 1; 48.0;   88.203000;  -27.202000;  -49.542000
 1; 50.4;  111.830000;  -30.436000;  -42.539000
 1; 52.8;  121.020000;  -32.786000;  -32.737000
 1; 55.2;  120.100000;  -34.247000;  -22.150000
 1; 57.6;  117.290000;  -35.028000;  -13.036000
 1; 60.0;  115.620000;  -35.456000;   -5.910300
 1; 62.4;  115.160000;  -35.631000;    1.329000
 1; 64.8;  116.320000;  -35.282000;    8.415000
 1; 67.2;  118.620000;  -34.747000;   16.271000
 1; 69.6;  120.080000;  -33.672000;   25.722000
 1; 72.0;  114.600000;  -31.745000;   36.052000
 1; 74.4;   94.752000;  -28.919000;   45.150000
 1; 76.8;   72.894000;  -25.573000;   50.536000
 1; 79.2;   64.709000;  -21.940000;   53.703000
 1; 81.6;   64.711000;  -18.319000;   57.689000
 1; 84.0;   55.277000;  -14.309000;   63.254000
 1; 86.4;   28.132000;   -9.617700;   67.577000
 1; 88.8;    5.376600;   -5.017300;   68.060000
 1; 91.2;   -1.149500;   -0.439410;   66.910000
 1; 93.6;   -5.300100;    4.091500;   67.143000
 1; 96.0;  -24.164000;    8.608600;   67.718000
 1; 98.4;  -51.954000;   13.253000;   65.390000
 1;100.8;  -65.341000;   17.402000;   59.931000
 1;103.2;  -66.190000;   21.127000;   54.564000
 1;105.6;  -71.399000;   24.668000;   50.843000
 1;108.0;  -89.468000;   28.018000;   46.928000
 1;110.4; -110.280000;   31.041000;   39.586000
 1;112.8; -117.570000;   33.183000;   29.729000
 1;115.2; -116.540000;   34.567000;   19.947000
 1;117.6; -113.970000;   35.306000;   11.311000
 1;120.0; -112.250000;   35.623000;    3.895500
 1;122.4; -111.930000;   35.679000;   -2.993100
 1;124.8; -112.900000;   35.475000;   -9.831900
 1;127.2; -114.610000;   34.873000;  -17.799000
 1;129.6; -114.990000;   33.728000;  -26.930000
 1;132.0; -108.500000;   31.841000;  -36.495000
 1;134.4;  -89.475000;   29.045000;  -45.003000
 1;136.8;  -70.631000;   25.809000;  -50.077000
 1;139.2;  -63.271000;   22.360000;  -53.346000
 1;141.6;  -61.578000;   18.771000;  -57.424000
 1;144.0;  -50.987000;   14.893000;  -62.585000
 1;146.4;  -26.513000;   10.427000;  -66.395000
 1;148.8;   -6.532000;    5.987300;  -66.930000
 1;151.2;    0.538370;    1.565800;  -66.120000
 1;153.6;    6.353000;   -2.798900;  -66.303000
 1;156.0;   24.500000;   -7.239500;  -66.596000
 1;158.4;   49.165000;  -11.738000;  -64.147000
 1;160.8;   61.590000;  -15.718000;  -59.150000
 1;163.2;   63.865000;  -19.383000;  -54.086000
 1;165.6;   69.635000;  -22.820000;  -50.338000
 1;168.0;   86.078000;  -26.042000;  -46.226000
 1;170.4;  104.470000;  -28.940000;  -39.273000
 1;172.8;  112.000000;  -31.051000;  -30.156000
 1;175.2;  111.870000;  -32.419000;  -20.612000
 1;177.6;  109.960000;  -33.192000;  -12.371000
 1;180.0;  108.520000;  -33.480000;   -5.109500
 1;182.4;  108.210000;  -33.489000;    1.841900
 1;184.8;  109.050000;  -33.253000;    8.622600
 1;187.2;  110.480000;  -32.644000;   16.252000
 1;189.6;  110.500000;  -31.492000;   25.183000
 1;192.0;  104.610000;  -29.678000;   34.307000
 1;194.4;   88.103000;  -27.036000;   42.582000
 1;196.8;   70.305000;  -23.925000;   47.933000
 1;199.2;   62.021000;  -20.598000;   51.411000
 1;201.6;   59.349000;  -17.097000;   55.401000
 1;204.0;   49.849000;  -13.330000;   60.295000
 1;206.4;   28.145000;   -9.066900;   64.143000
 1;208.8;    8.285700;   -4.738800;   65.063000
 1;211.2;   -0.196150;   -0.418120;   64.454000
 1;213.6;   -6.055100;    3.852500;   64.538000
 1;216.0;  -21.878000;    8.113100;   64.823000
 1;218.4;  -45.249000;   12.469000;   62.846000
 1;220.8;  -59.046000;   16.377000;   58.341000
 1;223.2;  -62.693000;   19.948000;   53.414000
 1;225.6;  -67.956000;   23.309000;   49.598000
 1;228.0;  -82.738000;   26.462000;   45.628000
 1;230.4; -100.780000;   29.307000;   39.171000
 1;232.8; -109.520000;   31.415000;   30.531000
 1;235.2; -110.370000;   32.838000;   21.183000
 1;237.6; -108.770000;   33.660000;   12.757000
 1;240.0; -107.510000;   34.050000;    5.559900
 1;242.4; -107.240000;   34.138000;   -1.292900
 1;244.8; -108.070000;   33.949000;   -7.948700
 1;247.2; -109.630000;   33.438000;  -15.401000
 1;249.6; -110.350000;   32.458000;  -23.988000
 1;252.0; -106.040000;   30.794000;  -33.177000
 1;254.4;  -91.361000;   28.330000;  -41.797000
 1;256.8;  -73.272000;   25.374000;  -47.577000
 1;259.2;  -63.538000;   22.130000;  -51.308000
 1;261.6;  -61.025000;   18.710000;  -55.239000
 1;264.0;  -53.683000;   15.080000;  -60.212000
 1;266.4;  -32.961000;   10.840000;  -64.644000
 1;268.8;  -11.272000;    6.505200;  -66.097000
 1;271.2;   -1.361700;    2.205000;  -65.642000
 1;273.6;    3.504700;   -2.078300;  -65.736000
 1;276.0;   17.889000;   -6.401200;  -66.365000
 1;278.4;   42.367000;  -10.872000;  -64.970000
 1;280.8;   58.732000;  -14.944000;  -60.706000
 1;283.2;   62.927000;  -18.677000;  -55.601000
 1;285.6;   66.939000;  -22.168000;  -51.783000
 1;288.0;   81.166000;  -25.493000;  -48.179000
 1;290.4;  101.650000;  -28.613000;  -41.998000
 1;292.8;  112.480000;  -30.965000;  -33.216000
 1;295.2;  113.760000;  -32.598000;  -23.606000
 1;297.6;  111.910000;  -33.588000;  -14.711000
 1;300.0;  110.230000;  -34.047000;   -7.054700
 1;302.4;  109.830000;  -34.232000;   -0.213820
 1;304.8;  110.650000;  -34.134000;    6.470800
 1;307.2;  112.440000;  -33.658000;   14.108000
 1;309.6;  113.800000;  -32.696000;   22.779000
 1;312.0;  110.550000;  -31.004000;   32.242000
 1;314.4;   95.685000;  -28.343000;   41.460000
 1;316.8;   75.774000;  -25.109000;   47.564000
 1;319.2;   65.122000;  -21.582000;   51.312000
 1;321.6;   63.736000;  -17.988000;   55.267000
 1;324.0;   57.465000;  -14.193000;   60.670000
 1;326.4;   35.175000;   -9.850400;   65.612000
 1;328.8;   10.737000;   -5.382200;   67.146000
 1;331.2;    0.467630;   -0.891230;   66.411000
 1;333.6;   -2.802900;    3.490300;   66.433000
 1;336.0;  -17.236000;    7.875200;   67.303000
 1;338.4;  -44.550000;   12.597000;   66.053000
 1;340.8;  -62.310000;   16.814000;   61.443000
 1;343.2;  -65.243000;   20.647000;   56.011000
 1;345.6;  -67.992000;   24.223000;   52.216000
 1;348.0;  -83.334000;   27.692000;   48.886000
 1;350.4; -106.580000;   30.918000;   42.640000
 1;352.8; -118.150000;   33.335000;   33.271000
 1;355.2; -118.770000;   34.936000;   23.099000
 1;357.6; -116.410000;   35.833000;   13.961000
 1;360.0; -114.640000;   36.244000;    6.296000
 2;  0.0; -106.580000;    9.979400;   -2.125100
 2;  2.4; -108.250000;    9.684000;   -9.782400
 2;  4.8; -111.540000;    9.236700;  -18.669000
 2;  7.2; -114.990000;    8.622400;  -29.237000
 2;  9.6; -112.930000;    7.963000;  -40.991000
 2; 12.0;  -95.268000;    7.181000;  -51.967000
 2; 14.4;  -71.419000;    6.308400;  -58.696000
 2; 16.8;  -61.392000;    5.239300;  -62.404000
 2; 19.2;  -63.667000;    4.063500;  -66.724000
 2; 21.6;  -58.560000;    2.901100;  -72.981000
 2; 24.0;  -32.247000;    1.758100;  -78.348000
 2; 26.4;   -6.911400;    0.607620;  -79.234000
 2; 28.8;   -1.035900;   -0.657100;  -77.865000
 2; 31.2;   -0.795790;   -1.902800;  -78.127000
 2; 33.6;   16.348000;   -3.008400;  -79.151000
 2; 36.0;   47.085000;   -4.060700;  -76.768000
 2; 38.4;   61.612000;   -5.041600;  -70.528000
 2; 40.8;   60.037000;   -6.052100;  -64.315000
 2; 43.2;   63.262000;   -6.930700;  -60.337000
 2; 45.6;   83.494000;   -7.592700;  -55.898000
 2; 48.0;  107.730000;   -8.106200;  -47.173000
 2; 50.4;  115.330000;   -8.483300;  -35.488000
 2; 52.8;  112.920000;   -8.768200;  -23.521000
 2; 55.2;  109.320000;   -8.922100;  -13.432000
 2; 57.6;  107.260000;   -8.953400;   -5.143100
 2; 60.0;  107.180000;   -8.820100;    2.684500
 2; 62.4;  109.040000;   -8.590100;   10.445000
 2; 64.8;  112.410000;   -8.088600;   19.628000
 2; 67.2;  115.460000;   -7.516600;   30.460000
 2; 69.6;  111.740000;   -6.870600;   42.161000
 2; 72.0;   91.605000;   -6.106200;   52.793000
 2; 74.4;   68.510000;   -5.215200;   58.904000
 2; 76.8;   60.863000;   -4.146600;   62.379000
 2; 79.2;   63.084000;   -2.981500;   66.900000
 2; 81.6;   55.171000;   -1.849000;   73.162000
 2; 84.0;   27.408000;   -0.713860;   77.850000
 2; 86.4;    4.554400;    0.456760;   78.116000
 2; 88.8;    0.324690;    1.722600;   76.704000
 2; 91.2;   -1.706600;    2.960100;   76.990000
 2; 93.6;  -20.901000;    4.039900;   77.511000
 2; 96.0;  -49.761000;    5.120600;   74.407000
 2; 98.4;  -61.384000;    6.165400;   68.101000
 2;100.8;  -60.180000;    7.202700;   62.131000
 2;103.2;  -65.457000;    8.124300;   58.042000
 2;105.6;  -85.765000;    8.824800;   53.095000
 2;108.0; -106.960000;    9.368800;   44.094000
 2;110.4; -112.850000;    9.812100;   32.599000
 2;112.8; -110.520000;   10.124000;   21.274000
 2;115.2; -107.270000;   10.296000;   11.473000
 2;117.6; -105.490000;   10.344000;    3.378800
 2;120.0; -105.490000;   10.219000;   -4.271000
 2;122.4; -107.170000;    9.930800;  -12.099000
 2;124.8; -110.110000;    9.500700;  -21.089000
 2;127.2; -112.090000;    8.927100;  -31.664000
 2;129.6; -106.870000;    8.263900;  -42.820000
 2;132.0;  -87.584000;    7.457000;  -52.598000
 2;134.4;  -67.291000;    6.535000;  -58.394000
 2;136.8;  -60.398000;    5.425700;  -61.973000
 2;139.2;  -60.809000;    4.265100;  -66.552000
 2;141.6;  -51.555000;    3.099700;  -72.389000
 2;144.0;  -26.221000;    1.910100;  -76.577000
 2;146.4;   -6.113800;    0.688650;  -76.952000
 2;148.8;   -0.880100;   -0.591760;  -75.909000
 2;151.2;    3.154700;   -1.862400;  -76.155000
 2;153.6;   21.587000;   -3.008400;  -76.348000
 2;156.0;   47.470000;   -4.132400;  -73.243000
 2;158.4;   58.724000;   -5.203300;  -67.428000
 2;160.8;   59.323000;   -6.261200;  -61.780000
 2;163.2;   65.340000;   -7.203300;  -57.501000
 2;165.6;   83.573000;   -7.940700;  -52.503000
 2;168.0;  102.920000;   -8.530400;  -43.825000
 2;170.4;  109.340000;   -8.932100;  -32.952000
 2;172.8;  107.970000;   -9.240200;  -22.061000
 2;175.2;  105.280000;   -9.396700;  -12.508000
 2;177.6;  103.680000;   -9.396300;   -4.490100
 2;180.0;  103.650000;   -9.266300;    3.146000
 2;182.4;  105.120000;   -8.964600;   10.846000
 2;184.8;  107.610000;   -8.516500;   19.659000
 2;187.2;  109.150000;   -7.899700;   29.845000
 2;189.6;  104.330000;   -7.190600;   40.572000
 2;192.0;   87.263000;   -6.338100;   50.169000
 2;194.4;   68.205000;   -5.386600;   56.188000
 2;196.8;   60.034000;   -4.263800;   60.070000
 2;199.2;   59.208000;   -3.046900;   64.484000
 2;201.6;   50.910000;   -1.863900;   70.009000
 2;204.0;   28.227000;   -0.634700;   74.263000
 2;206.4;    7.925400;    0.584840;   75.053000
 2;208.8;    0.876680;    1.861500;   74.193000
 2;211.2;   -3.257800;    3.134400;   74.280000
 2;213.6;  -19.452000;    4.278900;   74.454000
 2;216.0;  -43.923000;    5.368500;   71.823000
 2;218.4;  -56.694000;    6.427900;   66.522000
 2;220.8;  -58.552000;    7.454000;   60.964000
 2;223.2;  -63.818000;    8.379300;   56.632000
 2;225.6;  -80.130000;    9.137000;   51.954000
 2;228.0;  -99.416000;    9.739600;   44.002000
 2;230.4; -107.500000;   10.159000;   33.377000
 2;232.8; -107.070000;   10.439000;   22.728000
 2;235.2; -104.680000;   10.609000;   13.187000
 2;237.6; -103.030000;   10.614000;    4.912800
 2;240.0; -102.940000;   10.464000;   -2.595500
 2;242.4; -104.310000;   10.180000;  -10.146000
 2;244.8; -106.840000;    9.688100;  -18.834000
 2;247.2; -108.820000;    9.074200;  -28.761000
 2;249.6; -105.460000;    8.334100;  -39.451000
 2;252.0;  -90.119000;    7.452100;  -49.403000
 2;254.4;  -70.524000;    6.473800;  -55.918000
 2;256.8;  -60.870000;    5.365200;  -60.000000
 2;259.2;  -60.134000;    4.140400;  -64.379000
 2;261.6;  -53.990000;    2.948500;  -69.935000
 2;264.0;  -31.981000;    1.739000;  -74.788000
 2;266.4;  -10.047000;    0.562440;  -76.034000
 2;268.8;   -2.047100;   -0.698180;  -75.340000
 2;271.2;    1.080100;   -1.951700;  -75.483000
 2;273.6;   16.080000;   -3.101000;  -76.039000
 2;276.0;   41.563000;   -4.150300;  -73.998000
 2;278.4;   56.511000;   -5.181600;  -68.787000
 2;280.8;   58.367000;   -6.185400;  -63.101000
 2;283.2;   62.202000;   -7.123400;  -58.993000
 2;285.6;   78.697000;   -7.853000;  -54.588000
 2;288.0;  100.420000;   -8.424300;  -46.770000
 2;290.4;  109.990000;   -8.829800;  -36.238000
 2;292.8;  109.750000;   -9.108000;  -24.972000
 2;295.2;  107.060000;   -9.291700;  -15.034000
 2;297.6;  105.260000;   -9.302600;   -6.743200
 2;300.0;  105.080000;   -9.176000;    1.034500
 2;302.4;  106.540000;   -8.891100;    8.639600
 2;304.8;  109.440000;   -8.432900;   17.283000
 2;307.2;  112.290000;   -7.801100;   27.493000
 2;309.6;  110.220000;   -7.039300;   38.663000
 2;312.0;   94.785000;   -6.175300;   49.323000
 2;314.4;   72.615000;   -5.199600;   56.276000
 2;316.8;   61.496000;   -4.070000;   60.270000
 2;319.2;   61.914000;   -2.861300;   64.491000
 2;321.6;   57.386000;   -1.671300;   70.406000
 2;324.0;   34.590000;   -0.495040;   75.735000
 2;326.4;    9.752200;    0.664370;   77.145000
 2;328.8;    1.410000;    1.880200;   76.125000
 2;331.2;    0.366100;    3.135600;   76.200000
 2;333.6;  -14.150000;    4.250900;   77.140000
 2;336.0;  -42.687000;    5.289700;   75.274000
 2;338.4;  -59.142000;    6.286700;   69.710000
 2;340.8;  -59.601000;    7.284800;   63.612000
 2;343.2;  -61.950000;    8.191500;   59.483000
 2;345.6;  -79.447000;    8.877800;   55.338000
 2;348.0; -103.590000;    9.373700;   47.382000
 2;350.4; -113.390000;    9.699300;   36.274000
 2;352.8; -112.220000;    9.960700;   24.510000
 2;355.2; -108.900000;   10.091000;   14.288000
 2;357.6; -106.790000;   10.109000;    5.826300
 2;360.0; -106.520000;    9.977100;   -2.021600
 3;  0.0; -107.260000;    2.011200;  -12.743000
 3;  2.4; -111.080000;    1.371600;  -22.854000
 3;  4.8; -113.150000;    0.556090;  -34.875000
 3;  7.2; -104.030000;   -0.243000;  -47.328000
 3;  9.6;  -78.118000;   -0.856870;  -57.437000
 3; 12.0;  -58.593000;   -1.181400;  -62.698000
 3; 14.4;  -57.310000;   -1.554400;  -66.382000
 3; 16.8;  -59.967000;   -2.114100;  -72.171000
 3; 19.2;  -44.645000;   -2.709000;  -79.146000
 3; 21.6;  -12.954000;   -3.053200;  -82.984000
 3; 24.0;    3.014600;   -3.194800;  -82.398000
 3; 26.4;    1.150100;   -3.418800;  -81.583000
 3; 28.8;    6.932500;   -3.803800;  -82.960000
 3; 31.2;   34.474000;   -4.002100;  -83.182000
 3; 33.6;   61.042000;   -3.897100;  -78.578000
 3; 36.0;   64.062000;   -3.750400;  -71.644000
 3; 38.4;   60.307000;   -3.762300;  -66.361000
 3; 40.8;   71.362000;   -3.828400;  -62.833000
 3; 43.2;   97.846000;   -3.639500;  -56.816000
 3; 45.6;  115.220000;   -3.132800;  -45.768000
 3; 48.0;  115.380000;   -2.605900;  -33.074000
 3; 50.4;  110.670000;   -2.162300;  -21.318000
 3; 52.8;  106.820000;   -1.824400;  -11.521000
 3; 55.2;  105.130000;   -1.504400;   -3.216700
 3; 57.6;  105.620000;   -1.154500;    4.934600
 3; 60.0;  108.120000;   -0.706760;   13.479000
 3; 62.4;  111.980000;   -0.080192;   23.806000
 3; 64.8;  113.270000;    0.667740;   36.036000
 3; 67.2;  101.910000;    1.406300;   48.373000
 3; 69.6;   75.123000;    1.909300;   57.907000
 3; 72.0;   57.708000;    2.193500;   62.729000
 3; 74.4;   57.801000;    2.565000;   66.472000
 3; 76.8;   58.966000;    3.123600;   72.435000
 3; 79.2;   40.870000;    3.691600;   79.079000
 3; 81.6;    9.860000;    3.971200;   82.187000
 3; 84.0;   -3.612200;    4.078400;   81.256000
 3; 86.4;   -1.870800;    4.306600;   80.459000
 3; 88.8;  -10.009000;    4.660500;   81.648000
 3; 91.2;  -37.690000;    4.821100;   81.290000
 3; 93.6;  -61.195000;    4.724400;   76.252000
 3; 96.0;  -63.083000;    4.614200;   69.448000
 3; 98.4;  -60.938000;    4.687100;   64.406000
 3;100.8;  -73.768000;    4.764700;   60.541000
 3;103.2;  -98.701000;    4.584000;   53.998000
 3;105.6; -113.330000;    4.189700;   42.922000
 3;108.0; -113.020000;    3.743500;   30.632000
 3;110.4; -108.680000;    3.391700;   19.257000
 3;112.8; -105.210000;    3.094900;    9.760500
 3;115.2; -103.710000;    2.825300;    1.610600
 3;117.6; -104.220000;    2.504500;   -6.496700
 3;120.0; -106.510000;    2.087400;  -14.993000
 3;122.4; -109.680000;    1.520200;  -25.165000
 3;124.8; -109.680000;    0.831290;  -37.032000
 3;127.2;  -97.600000;    0.141610;  -48.691000
 3;129.6;  -73.067000;   -0.346800;  -57.642000
 3;132.0;  -57.649000;   -0.686230;  -62.413000
 3;134.4;  -56.869000;   -1.103700;  -66.362000
 3;136.8;  -55.766000;   -1.675000;  -72.151000
 3;139.2;  -37.815000;   -2.241100;  -78.182000
 3;141.6;  -10.276000;   -2.572300;  -80.996000
 3;144.0;    1.989100;   -2.765300;  -80.370000
 3;146.4;    2.231000;   -3.046100;  -79.889000
 3;148.8;   11.731000;   -3.481500;  -80.882000
 3;151.2;   37.153000;   -3.622300;  -80.189000
 3;153.6;   58.340000;   -3.627500;  -75.426000
 3;156.0;   61.353000;   -3.614500;  -69.100000
 3;158.4;   61.046000;   -3.759000;  -64.126000
 3;160.8;   73.460000;   -3.842600;  -60.016000
 3;163.2;   95.786000;   -3.735800;  -53.525000
 3;165.6;  109.690000;   -3.397100;  -42.918000
 3;168.0;  110.380000;   -3.007700;  -31.145000
 3;170.4;  106.850000;   -2.673900;  -20.138000
 3;172.8;  103.790000;   -2.386300;  -10.727000
 3;175.2;  102.410000;   -2.095800;   -2.636900
 3;177.6;  102.840000;   -1.761300;    5.421300
 3;180.0;  104.840000;   -1.318800;   13.817000
 3;182.4;  107.520000;   -0.731030;   23.752000
 3;184.8;  107.190000;   -0.012606;   35.216000
 3;187.2;   96.329000;    0.708810;   46.465000
 3;189.6;   74.092000;    1.215100;   55.364000
 3;192.0;   58.634000;    1.665100;   60.447000
 3;194.4;   56.173000;    2.109400;   64.485000
 3;196.8;   54.572000;    2.714400;   70.034000
 3;199.2;   38.811000;    3.288700;   75.858000
 3;201.6;   12.909000;    3.697200;   78.956000
 3;204.0;   -0.744850;    3.940600;   78.671000
 3;206.4;   -2.548500;    4.239700;   78.156000
 3;208.8;  -10.758000;    4.623200;   78.925000
 3;211.2;  -33.599000;    4.879000;   78.468000
 3;213.6;  -55.013000;    4.934600;   74.284000
 3;216.0;  -60.010000;    4.926000;   68.298000
 3;218.4;  -60.092000;    5.031000;   63.334000
 3;220.8;  -70.857000;    5.144900;   59.293000
 3;223.2;  -92.026000;    5.088100;   53.262000
 3;225.6; -107.190000;    4.763600;   43.270000
 3;228.0; -109.220000;    4.371200;   31.738000
 3;230.4; -106.240000;    3.994000;   20.777000
 3;232.8; -103.260000;    3.711700;   11.282000
 3;235.2; -101.820000;    3.402500;    3.163800
 3;237.6; -102.130000;    3.041500;   -4.873300
 3;240.0; -104.030000;    2.607200;  -13.153000
 3;242.4; -106.840000;    2.001900;  -22.860000
 3;244.8; -107.310000;    1.245000;  -34.180000
 3;247.2;  -98.185000;    0.490000;  -45.578000
 3;249.6;  -76.626000;   -0.131350;  -54.961000
 3;252.0;  -59.700000;   -0.584290;  -60.382000
 3;254.4;  -56.228000;   -1.043900;  -64.441000
 3;256.8;  -55.790000;   -1.646600;  -69.868000
 3;259.2;  -42.096000;   -2.282500;  -75.966000
 3;261.6;  -15.929000;   -2.711200;  -79.642000
 3;264.0;   -0.310880;   -2.957300;  -79.689000
 3;266.4;    1.537900;   -3.257500;  -79.188000
 3;268.8;    7.923200;   -3.659600;  -80.124000
 3;271.2;   30.315000;   -3.933700;  -80.179000
 3;273.6;   54.122000;   -3.962500;  -76.430000
 3;276.0;   60.330000;   -3.898200;  -70.380000
 3;278.4;   59.414000;   -3.943800;  -65.290000
 3;280.8;   68.813000;   -4.017000;  -61.471000
 3;283.2;   91.043000;   -3.892600;  -55.824000
 3;285.6;  108.510000;   -3.470700;  -45.950000
 3;288.0;  111.290000;   -2.969200;  -34.199000
 3;290.4;  108.080000;   -2.524100;  -22.776000
 3;292.8;  104.770000;   -2.148800;  -12.998000
 3;295.2;  103.150000;   -1.837100;   -4.725900
 3;297.6;  103.420000;   -1.460700;    3.385500
 3;300.0;  105.500000;   -0.984200;   11.692000
 3;302.4;  108.820000;   -0.359870;   21.517000
 3;304.8;  110.360000;    0.410090;   33.092000
 3;307.2;  102.120000;    1.183000;   45.023000
 3;309.6;   78.904000;    1.793900;   55.021000
 3;312.0;   59.963000;    2.167300;   60.593000
 3;314.4;   56.811000;    2.560500;   64.478000
 3;316.8;   58.253000;    3.145300;   70.024000
 3;319.2;   44.932000;    3.759500;   76.622000
 3;321.6;   15.910000;    4.181100;   80.654000
 3;324.0;   -1.084300;    4.357700;   80.532000
 3;326.4;   -1.351800;    4.599700;   79.791000
 3;328.8;   -6.479600;    4.986500;   80.943000
 3;331.2;  -30.974000;    5.234100;   81.284000
 3;333.6;  -57.258000;    5.182900;   77.274000
 3;336.0;  -62.564000;    5.044400;   70.774000
 3;338.4;  -59.686000;    5.059700;   65.524000
 3;340.8;  -69.026000;    5.123600;   61.940000
 3;343.2;  -93.653000;    4.975300;   56.348000
 3;345.6; -112.350000;    4.510100;   45.966000
 3;348.0; -114.140000;    3.973500;   33.675000
 3;350.4; -110.050000;    3.529100;   21.917000
 3;352.8; -106.320000;    3.151200;   12.053000
 3;355.2; -104.550000;    2.832000;    3.679700
 3;357.6; -104.890000;    2.461600;   -4.442100
 3;360.0; -107.220000;    1.995600;  -12.828000
 4;  0.0; -113.080000;   -1.666800;  -26.617000
 4;  2.4; -114.960000;   -2.054400;  -39.252000
 4;  4.8; -102.920000;   -2.318000;  -51.780000
 4;  7.2;  -74.430000;   -2.430400;  -61.022000
 4;  9.6;  -57.803000;   -2.490100;  -65.376000
 4; 12.0;  -60.074000;   -2.632800;  -69.160000
 4; 14.4;  -62.445000;   -2.765700;  -75.617000
 4; 16.8;  -42.741000;   -2.783600;  -82.519000
 4; 19.2;   -9.599900;   -2.644700;  -85.289000
 4; 21.6;    2.178200;   -2.533500;  -83.969000
 4; 24.0;   -1.951800;   -2.449400;  -83.415000
 4; 26.4;    6.958900;   -2.313500;  -85.064000
 4; 28.8;   38.185000;   -2.002800;  -84.464000
 4; 31.2;   62.248000;   -1.625700;  -78.625000
 4; 33.6;   61.633000;   -1.325100;  -71.444000
 4; 36.0;   58.148000;   -1.057400;  -66.646000
 4; 38.4;   73.173000;   -0.683610;  -62.933000
 4; 40.8;  101.490000;   -0.170560;  -55.734000
 4; 43.2;  116.140000;    0.393660;  -43.462000
 4; 45.6;  114.430000;    0.849210;  -30.453000
 4; 48.0;  109.440000;    1.204300;  -18.843000
 4; 50.4;  105.950000;    1.519100;   -9.288600
 4; 52.8;  104.780000;    1.816000;   -1.047900
 4; 55.2;  105.980000;    2.152400;    7.289300
 4; 57.6;  109.280000;    2.507100;   16.270000
 4; 60.0;  113.870000;    2.903300;   27.314000
 4; 62.4;  114.930000;    3.263300;   40.167000
 4; 64.8;  100.760000;    3.474200;   52.523000
 4; 67.2;   71.989000;    3.539200;   61.229000
 4; 69.6;   57.440000;    3.594500;   65.301000
 4; 72.0;   60.540000;    3.711400;   69.247000
 4; 74.4;   60.851000;    3.826400;   75.848000
 4; 76.8;   38.227000;    3.789000;   82.321000
 4; 79.2;    6.663100;    3.638200;   84.321000
 4; 81.6;   -2.460900;    3.512000;   82.729000
 4; 84.0;    0.991040;    3.416700;   82.320000
 4; 86.4;  -10.654000;    3.277500;   83.695000
 4; 88.8;  -41.439000;    2.961900;   82.441000
 4; 91.2;  -62.082000;    2.596700;   76.285000
 4; 93.6;  -60.807000;    2.312200;   69.357000
 4; 96.0;  -59.217000;    2.068700;   64.697000
 4; 98.4;  -75.684000;    1.684500;   60.601000
 4;100.8; -101.910000;    1.196100;   52.939000
 4;103.2; -114.100000;    0.684170;   40.766000
 4;105.6; -112.190000;    0.289480;   28.122000
 4;108.0; -107.610000;   -0.045466;   16.943000
 4;110.4; -104.460000;   -0.318800;    7.614500
 4;112.8; -103.470000;   -0.581670;   -0.496140
 4;115.2; -104.650000;   -0.890100;   -8.802700
 4;117.6; -107.690000;   -1.216500;  -17.766000
 4;120.0; -111.490000;   -1.571200;  -28.632000
 4;122.4; -111.060000;   -1.872900;  -41.093000
 4;124.8;  -96.242000;   -2.042400;  -52.752000
 4;127.2;  -70.133000;   -2.105500;  -60.949000
 4;129.6;  -57.347000;   -2.167500;  -65.055000
 4;132.0;  -59.209000;   -2.284400;  -69.200000
 4;134.4;  -57.307000;   -2.391600;  -75.557000
 4;136.8;  -35.729000;   -2.363200;  -81.401000
 4;139.2;   -7.671200;   -2.278000;  -83.306000
 4;141.6;    1.206600;   -2.189600;  -82.135000
 4;144.0;    0.023766;   -2.169400;  -81.923000
 4;146.4;   12.346000;   -2.067100;  -83.036000
 4;148.8;   40.425000;   -1.843400;  -81.623000
 4;151.2;   59.605000;   -1.567800;  -75.844000
 4;153.6;   59.939000;   -1.348300;  -69.312000
 4;156.0;   60.029000;   -1.157500;  -64.659000
 4;158.4;   75.716000;   -0.853880;  -60.293000
 4;160.8;   99.537000;   -0.443140;  -52.718000
 4;163.2;  111.470000;    0.027348;  -41.015000
 4;165.6;  110.540000;    0.401870;  -28.844000
 4;168.0;  106.630000;    0.719270;  -17.862000
 4;170.4;  103.760000;    0.995960;   -8.597200
 4;172.8;  102.840000;    1.265900;   -0.536790
 4;175.2;  103.910000;    1.589300;    7.765300
 4;177.6;  106.620000;    1.934700;   16.741000
 4;180.0;  109.890000;    2.304000;   27.187000
 4;182.4;  109.180000;    2.673300;   39.260000
 4;184.8;   95.621000;    2.907400;   50.667000
 4;187.2;   71.416000;    3.037000;   58.932000
 4;189.6;   58.153000;    3.154600;   63.305000
 4;192.0;   58.319000;    3.313300;   67.495000
 4;194.4;   56.254000;    3.462300;   73.556000
 4;196.8;   37.027000;    3.535500;   79.294000
 4;199.2;   10.015000;    3.481300;   81.515000
 4;201.6;   -0.588340;    3.453300;   80.641000
 4;204.0;   -0.619860;    3.455900;   80.317000
 4;206.4;  -11.341000;    3.398800;   81.236000
 4;208.8;  -37.189000;    3.230000;   80.079000
 4;211.2;  -57.101000;    2.971300;   74.867000
 4;213.6;  -59.161000;    2.759900;   68.540000
 4;216.0;  -59.172000;    2.557200;   63.820000
 4;218.4;  -72.866000;    2.262200;   59.606000
 4;220.8;  -95.942000;    1.858100;   52.551000
 4;223.2; -109.430000;    1.397700;   41.416000
 4;225.6; -109.710000;    0.996700;   29.411000
 4;228.0; -106.170000;    0.645700;   18.394000
 4;230.4; -103.340000;    0.351460;    9.032500
 4;232.8; -102.330000;    0.038923;    0.916240
 4;235.2; -103.250000;   -0.290790;   -7.310100
 4;237.6; -105.880000;   -0.655610;  -16.037000
 4;240.0; -109.310000;   -1.078700;  -26.432000
 4;242.4; -109.510000;   -1.483400;  -38.443000
 4;244.8;  -97.892000;   -1.766900;  -49.980000
 4;247.2;  -73.949000;   -1.958000;  -58.730000
 4;249.6;  -58.872000;   -2.089900;  -63.437000
 4;252.0;  -58.347000;   -2.272100;  -67.515000
 4;254.4;  -57.837000;   -2.475200;  -73.526000
 4;256.8;  -40.421000;   -2.588000;  -79.627000
 4;259.2;  -12.507000;   -2.565600;  -82.394000
 4;261.6;   -0.070432;   -2.545000;  -81.707000
 4;264.0;   -0.493410;   -2.633900;  -81.336000
 4;266.4;    8.245800;   -2.532000;  -82.502000
 4;268.8;   34.256000;   -2.339300;  -81.899000
 4;271.2;   56.780000;   -2.085000;  -76.957000
 4;273.6;   59.694000;   -1.824000;  -70.476000
 4;276.0;   58.376000;   -1.574900;  -65.615000
 4;278.4;   70.901000;   -1.257200;  -61.637000
 4;280.8;   95.247000;   -0.740000;  -54.959000
 4;283.2;  110.710000;   -0.184750;  -43.798000
 4;285.6;  111.290000;    0.293960;  -31.478000
 4;288.0;  107.440000;    0.690890;  -20.159000
 4;290.4;  104.340000;    1.036700;  -10.629000
 4;292.8;  103.170000;    1.357000;   -2.412900
 4;295.2;  104.100000;    1.720000;    5.852600
 4;297.6;  106.940000;    2.099700;   14.559000
 4;300.0;  111.010000;    2.531400;   25.076000
 4;302.4;  112.450000;    2.929400;   37.335000
 4;304.8;  101.640000;    3.232300;   49.481000
 4;307.2;   75.926000;    3.374500;   58.713000
 4;309.6;   59.238000;    3.489900;   63.470000
 4;312.0;   59.534000;    3.646800;   67.430000
 4;314.4;   61.013000;    3.852500;   73.664000
 4;316.8;   43.416000;    3.942900;   80.321000
 4;319.2;   12.410000;    3.903700;   83.342000
 4;321.6;   -0.949000;    3.829300;   82.395000
 4;324.0;    1.321300;    3.800200;   81.838000
 4;326.4;   -6.359000;    3.715100;   83.248000
 4;328.8;  -34.679000;    3.473500;   82.873000
 4;331.2;  -59.226000;    3.110900;   77.641000
 4;333.6;  -60.849000;    2.806600;   70.755000
 4;336.0;  -57.773000;    2.561300;   65.866000
 4;338.4;  -70.779000;    2.209100;   62.178000
 4;340.8;  -97.771000;    1.683400;   55.443000
 4;343.2; -113.990000;    1.096800;   43.738000
 4;345.6; -113.570000;    0.600150;   30.915000
 4;348.0; -108.970000;    0.188290;   19.237000
 4;350.4; -105.520000;   -0.167200;    9.587500
 4;352.8; -104.270000;   -0.497660;    1.296900
 4;355.2; -105.320000;   -0.847910;   -6.944300
 4;357.6; -108.500000;   -1.249700;  -15.870000
 4;360.0; -113.130000;   -1.686600;  -26.717000
 5;  0.0; -111.670000;   -4.464000;  -44.746000
 5;  2.4;  -88.567000;   -4.679000;  -56.414000
 5;  4.8;  -60.624000;   -4.597300;  -63.407000
 5;  7.2;  -54.711000;   -4.425100;  -66.791000
 5;  9.6;  -61.122000;   -4.403100;  -71.749000
 5; 12.0;  -54.279000;   -4.447500;  -79.398000
 5; 14.4;  -22.158000;   -4.229100;  -85.111000
 5; 16.8;    4.017500;   -3.738100;  -85.457000
 5; 19.2;    3.708900;   -3.279500;  -83.865000
 5; 21.6;    1.276900;   -2.988300;  -84.833000
 5; 24.0;   24.253000;   -2.616400;  -86.511000
 5; 26.4;   58.152000;   -1.978200;  -83.610000
 5; 28.8;   68.213000;   -1.229500;  -76.189000
 5; 31.2;   61.283000;   -0.656730;  -69.817000
 5; 33.6;   64.481000;   -0.193710;  -66.316000
 5; 36.0;   90.379000;    0.384320;  -61.806000
 5; 38.4;  115.380000;    1.157600;  -52.340000
 5; 40.8;  119.340000;    2.026600;  -38.660000
 5; 43.2;  114.060000;    2.690500;  -26.112000
 5; 45.6;  108.860000;    3.181500;  -15.318000
 5; 48.0;  105.970000;    3.554900;   -6.398800
 5; 50.4;  105.570000;    3.910400;    1.540400
 5; 52.8;  107.550000;    4.278200;   10.124000
 5; 55.2;  111.540000;    4.667300;   19.918000
 5; 57.6;  115.520000;    5.152300;   31.878000
 5; 60.0;  110.650000;    5.588800;   45.342000
 5; 62.4;   86.024000;    5.744200;   56.673000
 5; 64.8;   59.331000;    5.626200;   63.221000
 5; 67.2;   54.975000;    5.440200;   66.515000
 5; 69.6;   61.000000;    5.339400;   71.680000
 5; 72.0;   52.274000;    5.349500;   79.126000
 5; 74.4;   19.501000;    5.065300;   84.415000
 5; 76.8;   -4.772300;    4.565300;   84.367000
 5; 79.2;   -3.897000;    4.128800;   82.733000
 5; 81.6;   -2.964500;    3.829300;   83.603000
 5; 84.0;  -26.993000;    3.419000;   84.821000
 5; 86.4;  -58.280000;    2.790500;   81.648000
 5; 88.8;  -67.038000;    2.031000;   74.096000
 5; 91.2;  -61.082000;    1.482900;   67.976000
 5; 93.6;  -65.594000;    1.041500;   64.476000
 5; 96.0;  -90.868000;    0.471330;   59.561000
 5; 98.4; -113.670000;   -0.286680;   49.777000
 5;100.8; -116.920000;   -1.061500;   36.724000
 5;103.2; -112.020000;   -1.676100;   24.424000
 5;105.6; -107.190000;   -2.117900;   13.928000
 5;108.0; -104.490000;   -2.476300;    5.171100
 5;110.4; -104.110000;   -2.772100;   -2.803200
 5;112.8; -105.970000;   -3.094700;  -11.318000
 5;115.2; -109.550000;   -3.449000;  -20.924000
 5;117.6; -112.720000;   -3.856800;  -32.655000
 5;120.0; -106.980000;   -4.210800;  -45.639000
 5;122.4;  -83.505000;   -4.328000;  -56.554000
 5;124.8;  -59.637000;   -4.222700;  -62.877000
 5;127.2;  -55.025000;   -4.041600;  -66.401000
 5;129.6;  -58.987000;   -3.978500;  -71.582000
 5;132.0;  -48.904000;   -3.928100;  -78.651000
 5;134.4;  -19.197000;   -3.682400;  -83.435000
 5;136.8;    2.720300;   -3.216400;  -83.583000
 5;139.2;    3.153600;   -2.812400;  -82.377000
 5;141.6;    4.381800;   -2.506900;  -83.247000
 5;144.0;   26.625000;   -2.157400;  -84.226000
 5;146.4;   56.354000;   -1.533500;  -80.885000
 5;148.8;   65.025000;   -0.883010;  -73.995000
 5;151.2;   61.065000;   -0.397210;  -68.255000
 5;153.6;   66.470000;    0.050126;  -64.405000
 5;156.0;   89.954000;    0.573640;  -59.265000
 5;158.4;  110.950000;    1.249500;  -49.939000
 5;160.8;  115.070000;    1.979900;  -37.201000
 5;163.2;  111.020000;    2.551600;  -25.211000
 5;165.6;  106.660000;    2.994400;  -14.837000
 5;168.0;  104.160000;    3.345800;   -6.123500
 5;170.4;  103.760000;    3.642300;    1.913300
 5;172.8;  105.450000;    3.966800;   10.285000
 5;175.2;  108.690000;    4.311000;   19.920000
 5;177.6;  111.280000;    4.699000;   31.353000
 5;180.0;  105.680000;    5.054100;   43.924000
 5;182.4;   84.180000;    5.212800;   54.604000
 5;184.8;   61.203000;    5.134000;   61.166000
 5;187.2;   55.396000;    5.011500;   64.905000
 5;189.6;   58.082000;    4.978300;   69.908000
 5;192.0;   48.969000;    4.958200;   76.718000
 5;194.4;   21.516000;    4.735200;   81.560000
 5;196.8;   -0.699400;    4.345000;   82.084000
 5;199.2;   -3.180100;    3.969000;   80.993000
 5;201.6;   -4.417500;    3.663600;   81.601000
 5;204.0;  -24.588000;    3.321100;   82.529000
 5;206.4;  -52.552000;    2.780100;   79.783000
 5;208.8;  -63.411000;    2.178900;   73.342000
 5;211.2;  -60.622000;    1.680800;   67.498000
 5;213.6;  -64.990000;    1.282700;   63.648000
 5;216.0;  -86.634000;    0.780130;   58.816000
 5;218.4; -108.270000;    0.125180;   49.953000
 5;220.8; -113.950000;   -0.586530;   37.630000
 5;223.2; -110.590000;   -1.203000;   25.712000
 5;225.6; -106.380000;   -1.694800;   15.263000
 5;228.0; -103.790000;   -2.073000;    6.385400
 5;230.4; -103.330000;   -2.408400;   -1.556400
 5;232.8; -104.890000;   -2.758200;   -9.985200
 5;235.2; -108.040000;   -3.136900;  -19.287000
 5;237.6; -111.010000;   -3.577500;  -30.587000
 5;240.0; -106.760000;   -3.989700;  -43.234000
 5;242.4;  -86.749000;   -4.204800;  -54.229000
 5;244.8;  -62.556000;   -4.183900;  -61.282000
 5;247.2;  -55.206000;   -4.093200;  -65.124000
 5;249.6;  -58.204000;   -4.072600;  -69.993000
 5;252.0;  -51.201000;   -4.096200;  -76.877000
 5;254.4;  -24.522000;   -3.956100;  -82.181000
 5;256.8;   -0.285950;   -3.573000;  -83.161000
 5;259.2;    3.124600;   -3.209700;  -82.068000
 5;261.6;    2.900700;   -2.918400;  -82.705000
 5;264.0;   21.609000;   -2.623100;  -84.006000
 5;266.4;   51.389000;   -2.101100;  -81.745000
 5;268.8;   64.427000;   -1.467000;  -75.262000
 5;271.2;   61.185000;   -0.936030;  -69.198000
 5;273.6;   63.774000;   -0.495040;  -65.243000
 5;276.0;   84.867000;    0.015772;  -60.805000
 5;278.4;  108.610000;    0.732330;  -52.239000
 5;280.8;  115.530000;    1.534400;  -39.710000
 5;283.2;  112.040000;    2.199800;  -27.401000
 5;285.6;  107.550000;    2.728600;  -16.825000
 5;288.0;  104.730000;    3.111700;   -7.683300
 5;290.4;  104.200000;    3.497800;    0.288390
 5;292.8;  105.860000;    3.867400;    8.466000
 5;295.2;  109.370000;    4.283000;   17.894000
 5;297.6;  113.150000;    4.785600;   29.514000
 5;300.0;  110.100000;    5.263600;   42.437000
 5;302.4;   89.717000;    5.538400;   53.945000
 5;304.8;   63.267000;    5.499200;   61.268000
 5;307.2;   55.621000;    5.402100;   65.029000
 5;309.6;   60.301000;    5.383100;   69.889000
 5;312.0;   54.420000;    5.447300;   77.268000
 5;314.4;   25.468000;    5.296100;   83.067000
 5;316.8;   -1.312600;    4.892800;   83.953000
 5;319.2;   -3.760300;    4.463400;   82.510000
 5;321.6;   -1.529200;    4.188600;   83.159000
 5;324.0;  -21.041000;    3.865600;   84.777000
 5;326.4;  -53.624000;    3.292000;   82.485000
 5;328.8;  -66.584000;    2.585200;   75.621000
 5;331.2;  -61.359000;    2.021000;   69.289000
 5;333.6;  -63.109000;    1.558700;   65.600000
 5;336.0;  -86.397000;    1.010900;   61.340000
 5;338.4; -112.170000;    0.226750;   52.443000
 5;340.8; -118.240000;   -0.632460;   39.273000
 5;343.2; -113.680000;   -1.343800;   26.655000
 5;345.6; -108.580000;   -1.881100;   15.787000
 5;348.0; -105.590000;   -2.290700;    6.766100
 5;350.4; -105.020000;   -2.652600;   -1.282200
 5;352.8; -106.870000;   -3.048800;   -9.793400
 5;355.2; -110.730000;   -3.472600;  -19.289000
 5;357.6; -115.070000;   -3.986700;  -31.176000
 5;360.0; -111.760000;   -4.443800;  -44.623000
 6;  0.0;  -87.239000;   -6.071800;  -58.956000
 6;  2.4;  -60.259000;   -5.664100;  -64.565000
 6;  4.8;  -58.283000;   -5.304900;  -67.480000
 6;  7.2;  -66.078000;   -4.969200;  -72.992000
 6;  9.6;  -55.878000;   -4.505000;  -80.846000
 6; 12.0;  -20.291000;   -3.826200;  -85.568000
 6; 14.4;    3.132300;   -3.058500;  -84.767000
 6; 16.8;   -0.489380;   -2.431100;  -83.223000
 6; 19.2;   -1.547900;   -1.817300;  -84.742000
 6; 21.6;   26.066000;   -0.977480;  -85.934000
 6; 24.0;   60.151000;   -0.040612;  -81.772000
 6; 26.4;   66.399000;    0.848090;  -73.764000
 6; 28.8;   58.508000;    1.546700;  -68.021000
 6; 31.2;   64.516000;    2.284200;  -64.877000
 6; 33.6;   93.976000;    3.200200;  -59.563000
 6; 36.0;  118.050000;    4.139600;  -48.834000
 6; 38.4;  119.810000;    4.961100;  -34.893000
 6; 40.8;  114.230000;    5.545900;  -22.632000
 6; 43.2;  109.490000;    5.982000;  -12.429000
 6; 45.6;  107.290000;    6.311700;   -3.954700
 6; 48.0;  107.570000;    6.589900;    3.902900
 6; 50.4;  110.390000;    6.872600;   12.624000
 6; 52.8;  115.150000;    7.138800;   22.676000
 6; 55.2;  119.610000;    7.330400;   35.220000
 6; 57.6;  112.850000;    7.306100;   48.705000
 6; 60.0;   84.546000;    7.033500;   59.097000
 6; 62.4;   59.517000;    6.624300;   64.255000
 6; 64.8;   58.956000;    6.255700;   67.242000
 6; 67.2;   65.900000;    5.898800;   72.983000
 6; 69.6;   52.848000;    5.409600;   80.676000
 6; 72.0;   16.964000;    4.712100;   84.761000
 6; 74.4;   -3.862200;    3.935800;   83.548000
 6; 76.8;    0.208500;    3.284200;   82.038000
 6; 79.2;   -0.976860;    2.598600;   83.417000
 6; 81.6;  -29.604000;    1.752800;   84.017000
 6; 84.0;  -60.675000;    0.799550;   79.410000
 6; 86.4;  -64.934000;   -0.054801;   71.578000
 6; 88.8;  -58.319000;   -0.760160;   66.176000
 6; 91.2;  -66.492000;   -1.488700;   62.877000
 6; 93.6;  -95.239000;   -2.373600;   57.078000
 6; 96.0; -116.230000;   -3.254100;   46.299000
 6; 98.4; -117.240000;   -4.006900;   32.734000
 6;100.8; -111.990000;   -4.554300;   20.908000
 6;103.2; -107.620000;   -4.950100;   11.011000
 6;105.6; -105.600000;   -5.250000;    2.666700
 6;108.0; -105.910000;   -5.509100;   -5.103900
 6;110.4; -108.590000;   -5.770100;  -13.760000
 6;112.8; -112.930000;   -6.005400;  -23.703000
 6;115.2; -116.370000;   -6.174500;  -35.872000
 6;117.6; -108.680000;   -6.158500;  -48.828000
 6;120.0;  -82.129000;   -5.888900;  -58.756000
 6;122.4;  -59.252000;   -5.483400;  -63.906000
 6;124.8;  -58.042000;   -5.107700;  -67.091000
 6;127.2;  -63.013000;   -4.742100;  -72.658000
 6;129.6;  -49.841000;   -4.235800;  -79.855000
 6;132.0;  -17.415000;   -3.547600;  -83.735000
 6;134.4;    2.105300;   -2.810900;  -82.948000
 6;136.8;   -0.091691;   -2.174200;  -81.776000
 6;139.2;    2.286700;   -1.513300;  -83.038000
 6;141.6;   29.077000;   -0.683990;  -83.492000
 6;144.0;   58.080000;    0.223010;  -79.197000
 6;146.4;   63.805000;    1.052300;  -71.861000
 6;148.8;   58.940000;    1.766700;  -66.440000
 6;151.2;   66.748000;    2.474300;  -62.937000
 6;153.6;   93.247000;    3.333800;  -57.153000
 6;156.0;  113.660000;    4.175900;  -46.797000
 6;158.4;  115.920000;    4.926000;  -33.698000
 6;160.8;  111.440000;    5.474600;  -22.018000
 6;163.2;  107.380000;    5.876700;  -12.215000
 6;165.6;  105.390000;    6.199700;   -3.777300
 6;168.0;  105.600000;    6.440900;    3.987500
 6;170.4;  108.000000;    6.690000;   12.570000
 6;172.8;  111.940000;    6.927500;   22.367000
 6;175.2;  114.970000;    7.085100;   34.203000
 6;177.6;  107.940000;    7.085800;   46.906000
 6;180.0;   83.626000;    6.859200;   56.820000
 6;182.4;   61.070000;    6.363300;   62.302000
 6;184.8;   58.112000;    6.097000;   65.676000
 6;187.2;   61.944000;    5.764000;   71.068000
 6;189.6;   50.087000;    5.306900;   78.030000
 6;192.0;   19.632000;    4.677700;   82.029000
 6;194.4;   -0.694270;    3.966800;   81.580000
 6;196.8;   -0.257360;    3.354400;   80.447000
 6;199.2;   -2.440400;    2.738600;   81.486000
 6;201.6;  -26.569000;    1.981400;   82.019000
 6;204.0;  -55.147000;    1.105000;   78.173000
 6;206.4;  -62.760000;    0.260350;   71.160000
 6;208.8;  -58.709000;   -0.437170;   65.758000
 6;211.2;  -65.378000;   -1.165300;   62.203000
 6;213.6;  -90.259000;   -1.985700;   56.750000
 6;216.0; -111.440000;   -2.852300;   46.887000
 6;218.4; -115.090000;   -3.639500;   34.051000
 6;220.8; -111.100000;   -4.217900;   22.339000
 6;223.2; -107.130000;   -4.658500;   12.429000
 6;225.6; -105.060000;   -4.991600;    3.962000
 6;228.0; -105.160000;   -5.278400;   -3.836400
 6;230.4; -107.460000;   -5.546800;  -12.315000
 6;232.8; -111.340000;   -5.808200;  -21.954000
 6;235.2; -114.730000;   -6.006900;  -33.746000
 6;237.6; -109.110000;   -6.062500;  -46.501000
 6;240.0;  -85.955000;   -5.866500;  -56.784000
 6;242.4;  -62.053000;   -5.500500;  -62.642000
 6;244.8;  -57.890000;   -5.171900;  -66.053000
 6;247.2;  -62.311000;   -4.860500;  -71.322000
 6;249.6;  -52.499000;   -4.452000;  -78.444000
 6;252.0;  -22.362000;   -3.869100;  -82.922000
 6;254.4;    0.132990;   -3.163000;  -82.789000
 6;256.8;    0.215830;   -2.562600;  -81.596000
 6;259.2;    0.635500;   -1.957700;  -82.695000
 6;261.6;   23.823000;   -1.220200;  -83.683000
 6;264.0;   54.643000;   -0.341580;  -80.197000
 6;266.4;   64.053000;    0.518750;  -73.110000
 6;268.8;   59.242000;    1.211000;  -67.390000
 6;271.2;   64.260000;    1.866000;  -63.881000
 6;273.6;   89.305000;    2.722200;  -58.772000
 6;276.0;  112.550000;    3.615800;  -49.009000
 6;278.4;  116.910000;    4.452600;  -35.933000
 6;280.8;  112.650000;    5.067900;  -23.942000
 6;283.2;  108.350000;    5.536900;  -13.784000
 6;285.6;  106.130000;    5.917100;   -5.249900
 6;288.0;  106.220000;    6.249000;    2.539300
 6;290.4;  108.630000;    6.577200;   11.058000
 6;292.8;  112.890000;    6.865500;   20.724000
 6;295.2;  117.170000;    7.141100;   32.661000
 6;297.6;  112.750000;    7.241500;   45.808000
 6;300.0;   88.793000;    7.070100;   56.599000
 6;302.4;   62.741000;    6.742700;   62.621000
 6;304.8;   58.714000;    6.393500;   65.900000
 6;307.2;   65.007000;    6.096700;   71.285000
 6;309.6;   56.098000;    5.688200;   78.919000
 6;312.0;   23.097000;    5.076100;   83.799000
 6;314.4;   -1.417400;    4.342400;   83.451000
 6;316.8;   -0.167560;    3.722900;   81.937000
 6;319.2;    1.121500;    3.095200;   83.135000
 6;321.6;  -23.280000;    2.335000;   84.380000
 6;324.0;  -56.498000;    1.417500;   80.846000
 6;326.4;  -65.475000;    0.495970;   73.178000
 6;328.8;  -58.736000;   -0.218720;   67.416000
 6;331.2;  -63.204000;   -0.948360;   64.152000
 6;333.6;  -90.682000;   -1.835200;   59.129000
 6;336.0; -115.510000;   -2.779900;   49.067000
 6;338.4; -119.040000;   -3.639100;   35.374000
 6;340.8; -113.930000;   -4.245500;   23.040000
 6;343.2; -109.230000;   -4.717100;   12.755000
 6;345.6; -106.900000;   -5.071100;    4.202900
 6;348.0; -107.030000;   -5.393000;   -3.639400
 6;350.4; -109.670000;   -5.684200;  -12.244000
 6;352.8; -114.350000;   -5.994900;  -22.117000
 6;355.2; -119.210000;   -6.253700;  -34.505000
 6;357.6; -114.220000;   -6.295500;  -48.072000
 6;360.0;  -87.295000;   -6.088300;  -58.929000
 7;  0.0;  -54.506000;   -8.547200;  -62.782000
 7;  2.4;  -61.315000;   -7.636000;  -66.410000
 7;  4.8;  -62.705000;   -6.841800;  -73.756000
 7;  7.2;  -33.355000;   -5.862700;  -81.184000
 7;  9.6;    2.563400;   -4.539000;  -83.030000
 7; 12.0;    8.848000;   -3.092400;  -80.873000
 7; 14.4;    1.262300;   -1.874800;  -80.907000
 7; 16.8;   15.264000;   -0.658590;  -83.553000
 7; 19.2;   55.072000;    0.784240;  -82.832000
 7; 21.6;   75.698000;    2.348400;  -76.239000
 7; 24.0;   68.990000;    3.796900;  -68.725000
 7; 26.4;   64.712000;    4.957000;  -65.027000
 7; 28.8;   85.374000;    6.116100;  -62.228000
 7; 31.2;  118.020000;    7.435700;  -54.747000
 7; 33.6;  127.800000;    8.751200;  -42.299000
 7; 36.0;  122.420000;    9.803500;  -28.960000
 7; 38.4;  116.150000;   10.517000;  -18.089000
 7; 40.8;  112.100000;   10.963000;   -9.171900
 7; 43.2;  110.650000;   11.265000;   -1.520100
 7; 45.6;  111.630000;   11.429000;    6.046200
 7; 48.0;  115.100000;   11.559000;   15.003000
 7; 50.4;  119.830000;   11.663000;   25.676000
 7; 52.8;  119.990000;   11.630000;   38.913000
 7; 55.2;   99.248000;   11.287000;   51.563000
 7; 57.6;   66.592000;   10.508000;   59.190000
 7; 60.0;   54.678000;    9.464100;   62.385000
 7; 62.4;   61.713000;    8.546600;   66.227000
 7; 64.8;   60.888000;    7.704900;   73.655000
 7; 67.2;   29.710000;    6.674300;   80.613000
 7; 69.6;   -4.131200;    5.308400;   81.886000
 7; 72.0;   -8.703300;    3.845800;   79.634000
 7; 74.4;   -2.279500;    2.623600;   79.691000
 7; 76.8;  -18.306000;    1.407400;   81.997000
 7; 79.2;  -56.440000;   -0.033144;   80.727000
 7; 81.6;  -74.303000;   -1.576400;   74.007000
 7; 84.0;  -67.767000;   -2.967700;   66.811000
 7; 86.4;  -65.213000;   -4.109600;   63.232000
 7; 88.8;  -86.479000;   -5.275700;   60.131000
 7; 91.2; -116.880000;   -6.555400;   52.397000
 7; 93.6; -125.420000;   -7.787300;   40.215000
 7; 96.0; -120.340000;   -8.774900;   27.225000
 7; 98.4; -114.510000;   -9.441100;   16.686000
 7;100.8; -110.700000;   -9.868300;    7.962600
 7;103.2; -109.310000;  -10.118000;    0.295040
 7;105.6; -110.280000;  -10.288000;   -7.229500
 7;108.0; -113.510000;  -10.379000;  -16.099000
 7;110.4; -117.630000;  -10.411000;  -26.661000
 7;112.8; -116.720000;  -10.341000;  -39.459000
 7;115.2;  -96.294000;   -9.944800;  -51.560000
 7;117.6;  -66.127000;   -9.153200;  -58.903000
 7;120.0;  -54.832000;   -8.137500;  -62.238000
 7;122.4;  -60.298000;   -7.215200;  -66.161000
 7;124.8;  -57.944000;   -6.336600;  -73.252000
 7;127.2;  -28.454000;   -5.284700;  -79.759000
 7;129.6;    2.297700;   -3.985300;  -81.083000
 7;132.0;    7.331300;   -2.571500;  -79.286000
 7;134.4;    3.030800;   -1.361000;  -79.535000
 7;136.8;   19.311000;   -0.153380;  -81.607000
 7;139.2;   54.987000;    1.259200;  -80.242000
 7;141.6;   72.174000;    2.734500;  -73.883000
 7;144.0;   67.411000;    4.110500;  -66.979000
 7;146.4;   66.138000;    5.282300;  -63.215000
 7;148.8;   86.006000;    6.460400;  -59.882000
 7;151.2;  114.160000;    7.733300;  -52.287000
 7;153.6;  123.060000;    8.936800;  -40.524000
 7;156.0;  119.010000;    9.934200;  -27.942000
 7;158.4;  113.700000;   10.593000;  -17.609000
 7;160.8;  110.090000;   11.026000;   -8.940200
 7;163.2;  108.770000;   11.289000;   -1.313200
 7;165.6;  109.620000;   11.430000;    6.129700
 7;168.0;  112.580000;   11.523000;   14.902000
 7;170.4;  116.280000;   11.545000;   25.222000
 7;172.8;  115.260000;   11.439000;   37.563000
 7;175.2;   96.557000;   11.028000;   49.483000
 7;177.6;   68.086000;   10.271000;   56.980000
 7;180.0;   55.791000;    9.249000;   60.637000
 7;182.4;   59.804000;    8.288200;   64.552000
 7;184.8;   57.973000;    7.418900;   71.346000
 7;187.2;   31.315000;    6.384600;   77.892000
 7;189.6;    0.631100;    5.121000;   79.654000
 7;192.0;   -7.008500;    3.730000;   78.100000
 7;194.4;   -3.452800;    2.495500;   78.096000
 7;196.8;  -17.157000;    1.290900;   79.984000
 7;199.2;  -50.858000;   -0.094755;   79.062000
 7;201.6;  -70.103000;   -1.551400;   73.270000
 7;204.0;  -67.197000;   -2.959900;   66.460000
 7;206.4;  -65.307000;   -4.114800;   62.631000
 7;208.8;  -83.001000;   -5.266000;   59.475000
 7;211.2; -111.340000;   -6.511000;   52.389000
 7;213.6; -122.160000;   -7.702500;   41.108000
 7;216.0; -119.000000;   -8.703600;   28.514000
 7;218.4; -113.820000;   -9.407100;   17.981000
 7;220.8; -110.190000;   -9.866000;    9.309300
 7;223.2; -108.700000;  -10.155000;    1.570700
 7;225.6; -109.400000;  -10.321000;   -5.915800
 7;228.0; -112.220000;  -10.438000;  -14.518000
 7;230.4; -116.060000;  -10.505000;  -24.672000
 7;232.8; -116.030000;  -10.458000;  -37.093000
 7;235.2;  -99.137000;  -10.138000;  -49.284000
 7;237.6;  -70.184000;   -9.448900;  -57.271000
 7;240.0;  -55.845000;   -8.469500;  -61.133000
 7;242.4;  -59.476000;   -7.525500;  -64.902000
 7;244.8;  -59.288000;   -6.651000;  -71.608000
 7;247.2;  -34.056000;   -5.633100;  -78.510000
 7;249.6;   -1.764500;   -4.353400;  -80.705000
 7;252.0;    7.245900;   -2.948300;  -79.218000
 7;254.4;    2.776400;   -1.721700;  -79.187000
 7;256.8;   14.882000;   -0.509980;  -81.371000
 7;259.2;   49.688000;    0.871610;  -80.894000
 7;261.6;   71.181000;    2.351800;  -75.241000
 7;264.0;   68.397000;    3.753500;  -68.201000
 7;266.4;   65.038000;    4.916300;  -64.196000
 7;268.8;   81.960000;    6.045100;  -61.273000
 7;271.2;  112.080000;    7.284100;  -54.453000
 7;273.6;  124.340000;    8.491000;  -42.983000
 7;276.0;  121.110000;    9.514500;  -30.160000
 7;278.4;  115.540000;   10.256000;  -19.366000
 7;280.8;  111.610000;   10.744000;  -10.382000
 7;283.2;  110.040000;   11.078000;   -2.656800
 7;285.6;  110.760000;   11.291000;    4.816700
 7;288.0;  113.780000;   11.450000;   13.493000
 7;290.4;  118.140000;   11.561000;   23.791000
 7;292.8;  119.100000;   11.585000;   36.446000
 7;295.2;  102.170000;   11.343000;   49.163000
 7;297.6;   71.055000;   10.693000;   57.419000
 7;300.0;   55.939000;    9.724300;   61.156000
 7;302.4;   60.869000;    8.801300;   64.811000
 7;304.8;   62.272000;    7.960000;   71.865000
 7;307.2;   35.973000;    6.981600;   79.214000
 7;309.6;    0.711740;    5.683700;   81.487000
 7;312.0;   -8.381500;    4.222200;   79.633000
 7;314.4;   -1.876300;    2.964200;   79.413000
 7;316.8;  -13.383000;    1.753200;   81.882000
 7;319.2;  -50.764000;    0.349600;   81.574000
 7;321.6;  -73.534000;   -1.193700;   75.583000
 7;324.0;  -69.039000;   -2.636500;   68.174000
 7;326.4;  -64.274000;   -3.783200;   64.268000
 7;328.8;  -82.394000;   -4.965400;   61.587000
 7;331.2; -114.840000;   -6.250300;   54.641000
 7;333.6; -126.820000;   -7.529200;   42.729000
 7;336.0; -122.370000;   -8.612100;   29.390000
 7;338.4; -116.220000;   -9.346600;   18.453000
 7;340.8; -112.080000;   -9.825700;    9.427900
 7;343.2; -110.460000;  -10.130000;    1.648700
 7;345.6; -111.270000;  -10.329000;   -5.844100
 7;348.0; -114.560000;  -10.477000;  -14.649000
 7;350.4; -119.380000;  -10.584000;  -25.189000
 7;352.8; -120.520000;  -10.599000;  -38.309000
 7;355.2; -101.860000;  -10.316000;  -51.244000
 7;357.6;  -68.560000;   -9.584100;  -59.378000
 7;360.0;  -54.496000;   -8.556100;  -62.751000
