# *CALIBRATION************
# Voff:  -0.000557, -0.000502, 0.000355
# Oe*Vref/V:  18766.300781, 19118.269531, 18920.400390
# mV/Vref/Oe:  0.053287, 0.052306, 0.052853
# Hrel:  0.000000, 0.000000, 0.000000
# ADC Vref:  4.000000
# ADC Bits:  16
# ADC samples:  10
# ADC Speed:  4
# Linearization
# A0:  0.000000, 0.000000, 0.000000
# A1:  1.000000, 1.000000, 1.000000
# A2:  0.000000, 0.000000, 0.000000
# A3:  0.222500, 0.222500, 0.222500
# A4:  0.000000, 0.000000, 0.000000
# A5:  3.403000, 3.403000, 3.403000
# Orthogonalization
# 1.000000, 0.000000, 0.000000
# 0.000000, 1.000000, 0.000000
# 0.000000, 0.000000, 1.000000
# EEPROM Cal Valid, Valid, Valid
# EEPROM Lin Valid, Valid, Valid
# EEPROM Ortho Not Valid
# Sensor ID:   USB25103-1715507101             
# Software Version:  MDTUSBMAG3D.V9.20220510
# ************************
# 
# SENSOR_NB_SAMPLE: 10 
# SENSOR_GAIN: 1 
# SENSOR_READ_DELAY: 0.7 
# SENSOR_Oe_mT: 0.1 
# working dist: 1 mm
# Rotation step angle: 2.3999999999999995°
# sensor pos #1: 20 mm
#
# angle[°]; X1_magn [mT]; Y1_magn [mT]; Z1_magn [mT]
  0.0;  -32.620000;    4.705700;   56.721000
  2.4;  -42.549000;    5.283400;   53.294000
  4.8;  -49.924000;    5.800600;   49.316000
  7.2;  -57.750000;    6.280800;   44.877000
  9.6;  -66.942000;    6.628800;   39.771000
 12.0;  -75.914000;    6.864000;   33.306000
 14.4;  -81.617000;    6.974900;   25.810000
 16.8;  -83.928000;    6.996200;   18.135000
 19.2;  -84.378000;    6.946200;   10.502000
 21.6;  -84.232000;    6.824800;    3.486000
 24.0;  -84.068000;    6.630300;   -3.535600
 26.4;  -83.930000;    6.292700;  -10.556000
 28.8;  -83.319000;    5.834200;  -17.762000
 31.2;  -81.027000;    5.250500;  -25.492000
 33.6;  -75.781000;    4.601500;  -32.906000
 36.0;  -67.032000;    3.913700;  -39.723000
 38.4;  -57.312000;    3.187100;  -45.180000
 40.8;  -49.249000;    2.419700;  -49.532000
 43.2;  -41.847000;    1.586300;  -53.462000
 45.6;  -32.770000;    0.748760;  -56.889000
 48.0;  -20.840000;   -0.095128;  -59.459000
 50.4;   -9.117500;   -0.857250;  -60.684000
 52.8;    0.290970;   -1.621600;  -60.942000
 55.2;    9.754800;   -2.393400;  -60.666000
 57.6;   20.893000;   -3.070800;  -59.651000
 60.0;   33.099000;   -3.697400;  -57.389000
 62.4;   42.935000;   -4.242200;  -53.956000
 64.8;   50.255000;   -4.739900;  -50.004000
 67.2;   58.224000;   -5.182400;  -45.545000
 69.6;   67.568000;   -5.525500;  -40.442000
 72.0;   76.678000;   -5.774600;  -33.862000
 74.4;   82.358000;   -5.856400;  -26.312000
 76.8;   84.676000;   -5.958700;  -18.612000
 79.2;   85.063000;   -5.795900;  -10.915000
 81.6;   84.913000;   -5.664100;   -3.905100
 84.0;   84.780000;   -5.422900;    3.096500
 86.4;   84.658000;   -5.084600;   10.105000
 88.8;   84.038000;   -4.630500;   17.343000
 91.2;   81.726000;   -4.056900;   25.070000
 93.6;   76.443000;   -3.428900;   32.477000
 96.0;   67.561000;   -2.700400;   39.294000
 98.4;   57.759000;   -1.994300;   44.748000
100.8;   49.601000;   -1.242600;   49.075000
103.2;   42.236000;   -0.437540;   52.990000
105.6;   33.196000;    0.386190;   56.389000
108.0;   21.161000;    1.203600;   58.958000
110.4;    9.396700;    1.950800;   60.174000
112.8;   -0.132380;    2.718800;   60.416000
115.2;   -9.510100;    3.475700;   60.128000
117.6;  -20.665000;    4.155700;   59.142000
120.0;  -32.922000;    4.761700;   56.882000
122.4;  -42.829000;    5.316200;   53.430000
124.8;  -50.189000;    5.804700;   49.437000
127.2;  -58.069000;    6.243000;   44.980000
129.6;  -67.376000;    6.563800;   39.877000
132.0;  -76.418000;    6.716100;   33.381000
134.4;  -82.103000;    6.825200;   25.879000
136.8;  -84.374000;    6.819600;   18.155000
139.2;  -84.774000;    6.667200;   10.454000
141.6;  -84.627000;    6.628000;    3.399500
144.0;  -84.462000;    6.406200;   -3.608000
146.4;  -84.324000;    6.070500;  -10.606000
148.8;  -83.719000;    5.634000;  -17.863000
151.2;  -81.442000;    5.073900;  -25.599000
153.6;  -76.196000;    4.460400;  -33.015000
156.0;  -67.403000;    3.809600;  -39.846000
158.4;  -57.684000;    3.102700;  -45.282000
160.8;  -49.518000;    2.365200;  -49.642000
163.2;  -42.132000;    1.569900;  -53.586000
165.6;  -33.076000;    0.774530;  -57.001000
168.0;  -21.021000;   -0.050320;  -59.574000
170.4;   -9.213900;   -0.845670;  -60.801000
172.8;    0.239650;   -1.606300;  -61.044000
175.2;    9.643000;   -2.387100;  -60.740000
177.6;   20.840000;   -3.074100;  -59.760000
180.0;   33.157000;   -3.702600;  -57.492000
182.4;   43.067000;   -4.257100;  -54.032000
184.8;   50.423000;   -4.768300;  -50.031000
187.2;   58.283000;   -5.230900;  -45.564000
189.6;   67.544000;   -5.551700;  -40.461000
192.0;   76.596000;   -5.750700;  -33.968000
194.4;   82.373000;   -5.871300;  -26.432000
196.8;   84.636000;   -5.832100;  -18.726000
199.2;   85.073000;   -5.779100;  -11.048000
201.6;   84.925000;   -5.651800;   -4.028200
204.0;   84.771000;   -5.433700;    2.960200
206.4;   84.660000;   -5.143600;    9.925300
208.8;   84.027000;   -4.660000;   17.172000
211.2;   81.730000;   -4.127500;   24.914000
213.6;   76.501000;   -3.526300;   32.318000
216.0;   67.781000;   -2.828400;   39.106000
218.4;   57.987000;   -2.142900;   44.589000
220.8;   49.835000;   -1.440900;   48.933000
223.2;   42.423000;   -0.627600;   52.866000
225.6;   33.398000;    0.178200;   56.276000
228.0;   21.407000;    0.976170;   58.841000
230.4;    9.587300;    1.743100;   60.075000
232.8;   -0.006290;    2.498500;   60.296000
235.2;   -9.383600;    3.260700;   60.001000
237.6;  -20.448000;    3.939100;   59.004000
240.0;  -32.729000;    4.587400;   56.731000
242.4;  -42.690000;    5.154900;   53.282000
244.8;  -50.091000;    5.683300;   49.280000
247.2;  -57.897000;    6.142600;   44.815000
249.6;  -67.033000;    6.499600;   39.736000
252.0;  -76.006000;    6.727000;   33.270000
254.4;  -81.603000;    6.700800;   25.764000
256.8;  -84.021000;    6.867800;   18.091000
259.2;  -84.473000;    6.830400;   10.467000
261.6;  -84.330000;    6.721400;    3.489000
264.0;  -84.134000;    6.482400;   -3.475700
266.4;  -83.977000;    6.135500;  -10.448000
268.8;  -83.418000;    5.764700;  -17.626000
271.2;  -81.158000;    5.217700;  -25.294000
273.6;  -75.988000;    4.618400;  -32.666000
276.0;  -67.287000;    3.958500;  -39.477000
278.4;  -57.640000;    3.265900;  -44.935000
280.8;  -49.506000;    2.529200;  -49.309000
283.2;  -42.145000;    1.724800;  -53.242000
285.6;  -33.201000;    0.895890;  -56.658000
288.0;  -21.353000;    0.081492;  -59.231000
290.4;   -9.516300;   -0.777710;  -60.517000
292.8;   -0.036345;   -1.557800;  -60.793000
295.2;    9.316100;   -2.299300;  -60.511000
297.6;   20.374000;   -3.013300;  -59.541000
300.0;   32.630000;   -3.682000;  -57.324000
302.4;   42.615000;   -4.255600;  -53.899000
304.8;   49.992000;   -4.808200;  -49.925000
307.2;   57.810000;   -5.286900;  -45.462000
309.6;   66.938000;   -5.654700;  -40.419000
312.0;   75.947000;   -5.880300;  -33.966000
314.4;   81.707000;   -5.908300;  -26.603000
316.8;   84.070000;   -5.938900;  -18.877000
319.2;   84.550000;   -5.876200;  -11.224000
321.6;   84.430000;   -5.760400;   -4.224100
324.0;   84.288000;   -5.538200;    2.707000
326.4;   84.164000;   -5.210000;    9.693200
328.8;   83.572000;   -4.752600;   16.897000
331.2;   81.338000;   -4.191400;   24.598000
333.6;   76.270000;   -3.640200;   31.972000
336.0;   67.536000;   -2.928500;   38.834000
338.4;   57.832000;   -2.223200;   44.332000
340.8;   49.715000;   -1.462900;   48.695000
343.2;   42.324000;   -0.643290;   52.629000
345.6;   33.362000;    0.171480;   56.057000
348.0;   21.444000;    1.016900;   58.648000
350.4;    9.619600;    1.815200;   59.915000
352.8;    0.098538;    2.574000;   60.176000
355.2;   -9.252400;    3.342400;   59.876000
357.6;  -20.322000;    4.054100;   58.889000
360.0;  -32.452000;    4.685600;   56.687000
