# *CALIBRATION************
# Voff:  -0.000557, -0.000502, 0.000355
# Oe*Vref/V:  18766.300781, 19118.269531, 18920.400390
# mV/Vref/Oe:  0.053287, 0.052306, 0.052853
# Hrel:  0.000000, 0.000000, 0.000000
# ADC Vref:  4.000000
# ADC Bits:  16
# ADC samples:  10
# ADC Speed:  4
# Linearization
# A0:  0.000000, 0.000000, 0.000000
# A1:  1.000000, 1.000000, 1.000000
# A2:  0.000000, 0.000000, 0.000000
# A3:  0.222500, 0.222500, 0.222500
# A4:  0.000000, 0.000000, 0.000000
# A5:  3.403000, 3.403000, 3.403000
# Orthogonalization
# 1.000000, 0.000000, 0.000000
# 0.000000, 1.000000, 0.000000
# 0.000000, 0.000000, 1.000000
# EEPROM Cal Valid, Valid, Valid
# EEPROM Lin Valid, Valid, Valid
# EEPROM Ortho Not Valid
# Sensor ID:   USB25103-1715507101             
# Software Version:  MDTUSBMAG3D.V9.20220510
# ************************
# 
# SENSOR_NB_SAMPLE: 10 
# SENSOR_GAIN: 1 
# SENSOR_READ_DELAY: 0.7 
# SENSOR_Oe_mT: 0.1 
# working dist: 10 mm
# Rotation step angle: 1.2°
# sensor pos #1: 5 mm
#
# angle[°]; X1_magn [mT]; Y1_magn [mT]; Z1_magn [mT]
  0.0;    3.528200;   -0.394970;  -59.417000
  1.2;    8.262600;   -1.677200;  -59.296000
  2.4;   13.954000;   -2.943800;  -59.087000
  3.6;   20.439000;   -4.129800;  -58.684000
  4.8;   27.761000;   -5.360100;  -57.927000
  6.0;   35.167000;   -6.593900;  -56.735000
  7.2;   41.721000;   -7.939600;  -55.162000
  8.4;   46.665000;   -8.960100;  -53.239000
  9.6;   50.427000;  -10.031000;  -51.273000
 10.8;   53.693000;  -11.099000;  -49.227000
 12.0;   57.124000;  -12.156000;  -47.154000
 13.2;   61.205000;  -13.156000;  -45.068000
 14.4;   66.166000;  -14.086000;  -42.879000
 15.6;   71.707000;  -14.977000;  -40.515000
 16.8;   77.462000;  -15.763000;  -37.705000
 18.0;   82.847000;  -16.524000;  -34.425000
 19.2;   87.061000;  -17.188000;  -30.749000
 20.4;   89.995000;  -17.917000;  -26.933000
 21.6;   91.472000;  -18.287000;  -23.044000
 22.8;   92.237000;  -18.701000;  -19.091000
 24.0;   92.394000;  -19.145000;  -15.072000
 25.2;   92.263000;  -19.417000;  -11.323000
 26.4;   92.008000;  -19.604000;   -7.766500
 27.6;   91.773000;  -19.717000;   -4.462800
 28.8;   91.608000;  -19.770000;   -1.178700
 30.0;   91.518000;  -19.758000;    2.157500
 31.2;   91.544000;  -19.680000;    5.466400
 32.4;   91.588000;  -19.543000;    8.802200
 33.6;   91.599000;  -19.340000;   12.126000
 34.8;   91.459000;  -19.070000;   15.640000
 36.0;   90.997000;  -18.689000;   19.384000
 37.2;   89.851000;  -18.243000;   23.259000
 38.4;   87.779000;  -17.712000;   27.137000
 39.6;   84.676000;  -17.105000;   30.817000
 40.8;   80.278000;  -16.408000;   34.397000
 42.0;   74.695000;  -15.604000;   37.768000
 43.2;   68.672000;  -14.694000;   40.708000
 44.4;   63.027000;  -13.738000;   43.200000
 45.6;   58.345000;  -12.760000;   45.283000
 46.8;   54.443000;  -11.703000;   47.207000
 48.0;   51.033000;  -10.586000;   49.098000
 49.2;   47.631000;   -9.460900;   50.998000
 50.4;   43.525000;   -8.315300;   52.895000
 51.6;   38.459000;   -7.180100;   54.642000
 52.8;   32.018000;   -6.003100;   56.224000
 54.0;   24.618000;   -4.763400;   57.510000
 55.2;   17.162000;   -3.484500;   58.365000
 56.4;   10.558000;   -2.239600;   58.792000
 57.6;    5.200600;   -1.007700;   58.933000
 58.8;    0.660060;    0.267450;   58.907000
 60.0;   -3.669800;    1.562000;   58.800000
 61.2;   -8.403100;    2.855100;   58.669000
 62.4;  -14.056000;    4.119900;   58.442000
 63.6;  -20.605000;    5.349900;   58.023000
 64.8;  -27.913000;    6.580200;   57.255000
 66.0;  -35.202000;    7.749700;   56.043000
 67.2;  -41.723000;    9.021900;   54.452000
 68.4;  -46.805000;   10.195000;   52.539000
 69.6;  -50.568000;   11.286000;   50.565000
 70.8;  -53.811000;   12.361000;   48.534000
 72.0;  -57.193000;   13.430000;   46.457000
 73.2;  -61.246000;   14.438000;   44.367000
 74.4;  -66.231000;   15.370000;   42.181000
 75.6;  -71.791000;   16.230000;   39.827000
 76.8;  -77.611000;   17.033000;   37.036000
 78.0;  -83.009000;   17.742000;   33.736000
 79.2;  -87.312000;   18.460000;   30.067000
 80.4;  -90.139000;   19.030000;   26.200000
 81.6;  -91.725000;   19.508000;   22.373000
 82.8;  -92.475000;   19.910000;   18.444000
 84.0;  -92.688000;   20.218000;   14.523000
 85.2;  -92.557000;   20.469000;   10.746000
 86.4;  -92.323000;   20.641000;    7.192500
 87.6;  -92.105000;   20.739000;    3.868900
 88.8;  -91.928000;   20.780000;    0.567390
 90.0;  -91.858000;   20.768000;   -2.756600
 91.2;  -91.875000;   20.688000;   -6.084300
 92.4;  -91.920000;   20.540000;   -9.440500
 93.6;  -91.950000;   20.354000;  -12.775000
 94.8;  -91.811000;   20.077000;  -16.307000
 96.0;  -91.290000;   19.701000;  -20.084000
 97.2;  -90.153000;   19.301000;  -23.970000
 98.4;  -88.066000;   18.792000;  -27.874000
 99.6;  -84.884000;   18.219000;  -31.574000
100.8;  -80.410000;   17.563000;  -35.182000
102.0;  -74.781000;   16.771000;  -38.530000
103.2;  -68.717000;   15.916000;  -41.475000
104.4;  -62.993000;   14.971000;  -43.970000
105.6;  -58.259000;   14.021000;  -46.048000
106.8;  -54.355000;   13.005000;  -47.949000
108.0;  -50.899000;   11.870000;  -49.846000
109.2;  -47.482000;   10.769000;  -51.710000
110.4;  -43.395000;    9.614900;  -53.581000
111.6;  -38.271000;    8.477100;  -55.323000
112.8;  -31.854000;    7.276300;  -56.879000
114.0;  -24.403000;    6.006700;  -58.153000
115.2;  -16.984000;    4.722900;  -58.987000
116.4;  -10.380000;    3.412300;  -59.401000
117.6;   -5.074300;    2.144200;  -59.527000
118.8;   -0.561950;    0.868630;  -59.499000
120.0;    3.729700;   -0.456960;  -59.392000
121.2;    8.492100;   -1.776900;  -59.277000
122.4;   14.206000;   -3.077100;  -59.072000
123.6;   20.817000;   -4.377700;  -58.674000
124.8;   28.097000;   -5.539400;  -57.891000
126.0;   35.482000;   -6.799600;  -56.683000
127.2;   41.977000;   -8.087500;  -55.085000
128.4;   46.971000;   -9.210700;  -53.178000
129.6;   50.732000;  -10.299000;  -51.190000
130.8;   53.996000;  -11.379000;  -49.172000
132.0;   57.420000;  -12.435000;  -47.099000
133.2;   61.534000;  -13.437000;  -45.011000
134.4;   66.581000;  -14.389000;  -42.787000
135.6;   72.145000;  -15.236000;  -40.403000
136.8;   77.932000;  -16.067000;  -37.604000
138.0;   83.314000;  -16.809000;  -34.302000
139.2;   87.462000;  -17.493000;  -30.640000
140.4;   90.260000;  -18.074000;  -26.763000
141.6;   91.803000;  -18.541000;  -22.906000
142.8;   92.534000;  -18.949000;  -19.021000
144.0;   92.754000;  -19.213000;  -15.138000
145.2;   92.620000;  -19.454000;  -11.383000
146.4;   92.399000;  -19.619000;   -7.818600
147.6;   92.164000;  -19.736000;   -4.511900
148.8;   92.018000;  -19.762000;   -1.240400
150.0;   91.943000;  -19.762000;    2.097300
151.2;   91.946000;  -19.654000;    5.444200
152.4;   92.013000;  -19.515000;    8.788600
153.6;   92.021000;  -19.303000;   12.151000
154.8;   91.888000;  -19.048000;   15.699000
156.0;   91.371000;  -18.718000;   19.476000
157.2;   90.190000;  -18.277000;   23.402000
158.4;   88.115000;  -17.831000;   27.272000
159.6;   84.854000;  -17.209000;   30.999000
160.8;   80.353000;  -16.544000;   34.581000
162.0;   74.629000;  -15.758000;   37.982000
163.2;   68.542000;  -14.893000;   40.903000
164.4;   62.949000;  -14.009000;   43.353000
165.6;   58.201000;  -13.020000;   45.434000
166.8;   54.294000;  -11.999000;   47.351000
168.0;   50.849000;  -10.923000;   49.216000
169.2;   47.398000;   -9.785000;   51.101000
170.4;   43.296000;   -8.661800;   52.947000
171.6;   38.182000;   -7.511700;   54.658000
172.8;   31.731000;   -6.335500;   56.214000
174.0;   24.254000;   -5.034500;   57.485000
175.2;   16.847000;   -3.756000;   58.300000
176.4;   10.294000;   -2.481600;   58.709000
177.6;    5.006700;   -1.234000;   58.814000
178.8;    0.468000;    0.060207;   58.772000
180.0;   -3.876800;    1.369000;   58.665000
181.2;   -8.618300;    2.664700;   58.534000
182.4;  -14.297000;    3.945500;   58.306000
183.6;  -20.786000;    5.165400;   57.863000
184.8;  -28.075000;    6.404000;   57.087000
186.0;  -35.421000;    7.658600;   55.855000
187.2;  -41.790000;    8.865900;   54.220000
188.4;  -46.774000;   10.036000;   52.333000
189.6;  -50.543000;   11.127000;   50.350000
190.8;  -53.781000;   12.205000;   48.284000
192.0;  -57.224000;   13.324000;   46.125000
193.2;  -61.287000;   14.318000;   44.031000
194.4;  -66.216000;   15.274000;   41.835000
195.6;  -71.673000;   16.124000;   39.439000
196.8;  -77.310000;   16.935000;   36.648000
198.0;  -82.588000;   17.698000;   33.367000
199.2;  -86.674000;   18.373000;   29.720000
200.4;  -89.390000;   18.950000;   25.902000
201.6;  -90.933000;   19.424000;   22.101000
202.8;  -91.663000;   19.836000;   18.210000
204.0;  -91.853000;   20.148000;   14.337000
205.2;  -91.721000;   20.394000;   10.600000
206.4;  -91.411000;   20.465000;    7.066500
207.6;  -91.227000;   20.625000;    3.795300
208.8;  -91.125000;   20.721000;    0.523420
210.0;  -91.059000;   20.710000;   -2.784700
211.2;  -91.069000;   20.638000;   -6.092500
212.4;  -91.119000;   20.516000;   -9.410600
213.6;  -91.124000;   20.299000;  -12.700000
214.8;  -90.966000;   20.043000;  -16.210000
216.0;  -90.433000;   19.688000;  -19.988000
217.2;  -89.302000;   19.280000;  -23.824000
218.4;  -87.229000;   18.785000;  -27.655000
219.6;  -84.129000;   18.221000;  -31.297000
220.8;  -79.694000;   17.554000;  -34.889000
222.0;  -74.133000;   16.772000;  -38.238000
223.2;  -68.152000;   15.910000;  -41.167000
224.4;  -62.620000;   14.995000;  -43.622000
225.6;  -57.977000;   14.045000;  -45.688000
226.8;  -54.068000;   13.020000;  -47.625000
228.0;  -50.654000;   11.918000;  -49.514000
229.2;  -47.237000;   10.796000;  -51.395000
230.4;  -43.193000;    9.677600;  -53.234000
231.6;  -38.156000;    8.533500;  -54.979000
232.8;  -31.744000;    7.337100;  -56.556000
234.0;  -24.362000;    6.070900;  -57.820000
235.2;  -17.021000;    4.798700;  -58.661000
236.4;  -10.522000;    3.523200;  -59.088000
237.6;   -5.241100;    2.265500;  -59.238000
238.8;   -0.655780;    0.961980;  -59.214000
240.0;    3.644000;   -0.342700;  -59.162000
241.2;    8.392800;   -1.644400;  -59.043000
242.4;   14.050000;   -2.920700;  -58.804000
243.6;   20.469000;   -4.141000;  -58.394000
244.8;   27.729000;   -5.378100;  -57.623000
246.0;   35.036000;   -6.643900;  -56.415000
247.2;   41.411000;   -7.863400;  -54.813000
248.4;   46.426000;   -9.040100;  -52.938000
249.6;   50.178000;  -10.128000;  -50.981000
250.8;   53.443000;  -11.219000;  -48.935000
252.0;   56.828000;  -12.286000;  -46.871000
253.2;   60.870000;  -13.307000;  -44.785000
254.4;   65.700000;  -14.235000;  -42.604000
255.6;   71.110000;  -15.085000;  -40.262000
256.8;   76.826000;  -15.883000;  -37.489000
258.0;   82.112000;  -16.651000;  -34.236000
259.2;   86.283000;  -17.310000;  -30.633000
260.4;   89.081000;  -17.894000;  -26.845000
261.6;   90.716000;  -18.359000;  -23.065000
262.8;   91.508000;  -18.773000;  -19.183000
264.0;   91.744000;  -19.136000;  -15.240000
265.2;   91.653000;  -19.375000;  -11.511000
266.4;   91.455000;  -19.534000;   -7.986000
267.6;   91.241000;  -19.637000;   -4.709300
268.8;   91.094000;  -19.671000;   -1.405600
270.0;   91.075000;  -19.700000;    1.891800
271.2;   91.033000;  -19.568000;    5.235800
272.4;   91.084000;  -19.412000;    8.543200
273.6;   91.094000;  -19.211000;   11.841000
274.8;   90.949000;  -18.941000;   15.380000
276.0;   90.443000;  -18.610000;   19.157000
277.2;   89.312000;  -18.176000;   23.015000
278.4;   87.287000;  -17.674000;   26.831000
279.6;   84.246000;  -17.109000;   30.503000
280.8;   79.864000;  -16.428000;   34.102000
282.0;   74.393000;  -15.653000;   37.458000
283.2;   68.431000;  -14.795000;   40.417000
284.4;   62.859000;  -13.883000;   42.902000
285.6;   58.177000;  -12.937000;   44.991000
286.8;   54.243000;  -11.908000;   46.931000
288.0;   50.783000;  -10.824000;   48.822000
289.2;   47.379000;   -9.703200;   50.714000
290.4;   43.379000;   -8.581500;   52.575000
291.6;   38.371000;   -7.452700;   54.309000
292.8;   31.992000;   -6.256300;   55.909000
294.0;   24.632000;   -4.989700;   57.206000
295.2;   17.246000;   -3.711900;   58.052000
296.4;   10.663000;   -2.447900;   58.493000
297.6;    5.314300;   -1.189900;   58.645000
298.8;    0.715770;    0.091947;   58.623000
300.0;   -3.595700;    1.367100;   58.505000
301.2;   -8.370200;    2.702000;   58.381000
302.4;  -13.982000;    3.957100;   58.163000
303.6;  -20.401000;    5.171400;   57.743000
304.8;  -27.643000;    6.410700;   56.984000
306.0;  -34.940000;    7.645900;   55.777000
307.2;  -41.341000;    8.855000;   54.177000
308.4;  -46.357000;    9.996200;   52.304000
309.6;  -50.155000;   11.086000;   50.343000
310.8;  -53.417000;   12.125000;   48.291000
312.0;  -56.773000;   13.184000;   46.204000
313.2;  -60.780000;   14.167000;   44.126000
314.4;  -65.632000;   15.106000;   41.940000
315.6;  -71.006000;   15.947000;   39.582000
316.8;  -76.651000;   16.763000;   36.810000
318.0;  -81.908000;   17.492000;   33.588000
319.2;  -86.052000;   18.161000;   29.962000
320.4;  -88.839000;   18.740000;   26.147000
321.6;  -90.432000;   19.199000;   22.361000
322.8;  -91.216000;   19.599000;   18.455000
324.0;  -91.445000;   19.923000;   14.583000
325.2;  -91.358000;   20.153000;   10.856000
326.4;  -91.147000;   20.328000;    7.323000
327.6;  -90.949000;   20.416000;    4.020400
328.8;  -90.800000;   20.472000;    0.727400
330.0;  -90.729000;   20.424000;   -2.572600
331.2;  -90.741000;   20.341000;   -5.891800
332.4;  -90.814000;   20.225000;   -9.217300
333.6;  -90.800000;   19.972000;  -12.527000
334.8;  -90.723000;   19.744000;  -16.044000
336.0;  -90.240000;   19.395000;  -19.794000
337.2;  -89.137000;   18.959000;  -23.658000
338.4;  -87.132000;   18.450000;  -27.520000
339.6;  -84.005000;   17.797000;  -31.208000
340.8;  -79.756000;   17.226000;  -34.782000
342.0;  -74.290000;   16.461000;  -38.162000
343.2;  -68.335000;   15.562000;  -41.111000
344.4;  -62.828000;   14.703000;  -43.603000
345.6;  -58.196000;   13.770000;  -45.682000
346.8;  -54.279000;   12.769000;  -47.648000
348.0;  -50.878000;   11.690000;  -49.557000
349.2;  -47.472000;   10.582000;  -51.456000
350.4;  -43.463000;    9.458100;  -53.336000
351.6;  -38.434000;    8.345300;  -55.088000
352.8;  -32.065000;    7.161600;  -56.693000
354.0;  -24.668000;    5.918900;  -57.982000
355.2;  -17.202000;    4.573900;  -58.867000
356.4;  -10.696000;    3.385400;  -59.289000
357.6;   -5.351400;    2.146000;  -59.455000
358.8;   -0.766470;    0.882070;  -59.444000
360.0;    3.554900;   -0.419990;  -59.364000
