# *CALIBRATION************
# Voff:  -0.000557, -0.000502, 0.000355
# Oe*Vref/V:  18766.300781, 19118.269531, 18920.400390
# mV/Vref/Oe:  0.053287, 0.052306, 0.052853
# Hrel:  0.000000, 0.000000, 0.000000
# ADC Vref:  4.000000
# ADC Bits:  16
# ADC samples:  10
# ADC Speed:  4
# Linearization
# A0:  0.000000, 0.000000, 0.000000
# A1:  1.000000, 1.000000, 1.000000
# A2:  0.000000, 0.000000, 0.000000
# A3:  0.222500, 0.222500, 0.222500
# A4:  0.000000, 0.000000, 0.000000
# A5:  3.403000, 3.403000, 3.403000
# Orthogonalization
# 1.000000, 0.000000, 0.000000
# 0.000000, 1.000000, 0.000000
# 0.000000, 0.000000, 1.000000
# EEPROM Cal Valid, Valid, Valid
# EEPROM Lin Valid, Valid, Valid
# EEPROM Ortho Not Valid
# Sensor ID:   USB25103-1715507101             
# Software Version:  MDTUSBMAG3D.V9.20220510
# ************************
# 
# SENSOR_NB_SAMPLE: 10 
# SENSOR_GAIN: 1 
# SENSOR_READ_DELAY: 0.7 
# SENSOR_Oe_mT: 0.1 
# working dist: 15 mm
# Rotation step angle: 2.3999999999999995°
# sensor pos #1: 5 mm
# sensor pos #2: 50 mm
# sensor pos #3: 85 mm
#
# angle[°]; X1_magn [mT]; Y1_magn [mT]; Z1_magn [mT]; X2_magn [mT]; Y2_magn [mT]; Z2_magn [mT]; X3_magn [mT]; Y3_magn [mT]; Z3_magn [mT]
  0.0;  -36.291000;   10.501000;   35.044000;  -45.325000;    1.842800;   40.148000;  -52.522000;   -4.006900;   35.573000
  2.4;  -59.121000;   -4.901200;   31.046000;  -52.230000;    1.521700;   35.881000;  -42.798000;   11.990000;   32.016000
  4.8;  -48.808000;   13.299000;   28.492000;  -58.349000;    1.158000;   31.060000;  -64.318000;   -5.661500;   26.035000
  7.2;  -68.004000;   -6.376500;   20.317000;  -63.441000;    0.730090;   25.430000;  -54.465000;   14.433000;   24.271000
  9.6;  -58.793000;   15.313000;   19.643000;  -66.747000;    0.376850;   19.471000;  -70.038000;   -6.932200;   14.522000
 12.0;  -70.960000;   -7.364600;    8.603400;  -68.659000;    0.045645;   13.246000;  -61.839000;   15.941000;   14.631000
 14.4;  -63.582000;   16.343000;    9.456300;  -69.544000;   -0.315440;    6.997400;  -71.145000;   -7.676400;    2.735500
 16.8;  -70.754000;   -7.857800;   -3.023100;  -69.677000;   -0.639550;    0.921780;  -64.375000;   16.522000;    4.391800
 19.2;  -64.542000;   16.459000;   -0.784010;  -69.241000;   -0.922220;   -5.372600;  -69.630000;   -7.935500;   -9.020300
 21.6;  -67.507000;   -7.900000;  -14.932000;  -68.102000;   -1.231400;  -11.504000;  -64.120000;   16.164000;   -5.823400
 24.0;  -62.792000;   15.703000;  -11.036000;  -65.836000;   -1.540900;  -17.869000;  -63.847000;   -7.705100;  -20.959000
 26.4;  -58.510000;   -7.400100;  -26.639000;  -62.009000;   -1.797100;  -24.091000;  -60.558000;   14.872000;  -16.194000
 28.8;  -56.996000;   13.895000;  -21.082000;  -56.731000;   -2.017400;  -29.745000;  -52.038000;   -6.942600;  -31.626000
 31.2;  -44.913000;   -6.349300;  -36.078000;  -50.187000;   -2.164900;  -34.934000;  -51.921000;   12.643000;  -25.776000
 33.6;  -46.151000;   11.213000;  -29.776000;  -43.447000;   -2.279200;  -39.269000;  -37.846000;   -5.681600;  -39.789000
 36.0;  -30.097000;   -4.896000;  -43.038000;  -36.346000;   -2.370300;  -43.063000;  -39.914000;    9.565300;  -33.316000
 38.4;  -33.345000;    7.823700;  -36.328000;  -28.659000;   -2.420300;  -46.260000;  -21.499000;   -4.042400;  -45.667000
 40.8;  -12.644000;   -3.128700;  -47.467000;  -20.431000;   -2.417300;  -48.672000;  -26.291000;    5.972300;  -38.788000
 43.2;  -18.349000;    3.984300;  -40.719000;  -11.567000;   -2.351600;  -50.342000;   -3.626900;   -2.126400;  -48.562000
 45.6;    4.936700;   -1.117500;  -48.920000;   -3.060200;   -2.250400;  -51.199000;  -10.342000;    2.013900;  -41.929000
 48.0;   -2.224900;   -0.029036;  -42.449000;    5.504100;   -2.120800;  -51.343000;   13.896000;   -0.078699;  -48.609000
 50.4;   23.026000;    0.980650;  -47.521000;   14.306000;   -1.946800;  -50.758000;    5.766600;   -2.049900;  -42.487000
 52.8;   13.811000;   -3.991600;  -41.841000;   22.973000;   -1.719800;  -49.380000;   31.544000;    2.018700;  -45.665000
 55.2;   39.446000;    3.038900;  -43.042000;   31.456000;   -1.467000;  -47.152000;   22.102000;   -5.934800;  -40.481000
 57.6;   29.644000;   -7.720400;  -38.512000;   38.868000;   -1.168700;  -44.275000;   46.502000;    4.003400;  -39.919000
 60.0;   53.504000;    4.946200;  -36.093000;   46.004000;   -0.806090;  -40.681000;   36.665000;   -9.400800;  -35.923000
 62.4;   43.171000;  -10.931000;  -32.804000;   52.837000;   -0.450240;  -36.456000;   60.019000;    5.823000;  -31.574000
 64.8;   65.179000;    6.599300;  -26.482000;   58.966000;   -0.073471;  -31.594000;   49.331000;  -12.204000;  -29.293000
 67.2;   55.057000;  -13.361000;  -25.016000;   63.946000;    0.298440;  -25.893000;   68.807000;    7.281100;  -20.719000
 69.6;   70.784000;    7.852800;  -14.945000;   67.224000;    0.725610;  -19.963000;   59.402000;  -14.270000;  -20.313000
 72.0;   62.323000;  -15.022000;  -15.150000;   69.104000;    1.109800;  -13.732000;   71.665000;    8.269500;   -9.022200
 74.4;   71.779000;    8.580600;   -3.177900;   69.931000;    1.463500;   -7.521800;   64.110000;  -15.334000;  -10.048000
 76.8;   64.869000;  -15.502000;   -4.988600;   70.092000;    1.793500;   -1.485400;   71.393000;    8.753100;    2.545900
 79.2;   70.223000;    8.831100;    8.572800;   69.654000;    2.100500;    4.810800;   65.009000;  -15.386000;    0.221500
 81.6;   64.522000;  -15.098000;    5.259400;   68.477000;    2.389900;   10.941000;   68.067000;    8.775500;   14.460000
 84.0;   64.355000;    8.635800;   20.454000;   66.186000;    2.687100;   17.278000;   63.251000;  -14.575000;   10.436000
 86.4;   60.891000;  -13.798000;   15.626000;   62.370000;    2.932100;   23.430000;   58.978000;    8.347900;   26.081000
 88.8;   52.541000;    7.901700;   31.028000;   57.136000;    3.172200;   29.069000;   57.264000;  -12.798000;   20.519000
 91.2;   52.141000;  -11.508000;   25.201000;   50.577000;    3.333500;   34.247000;   45.415000;    7.320300;   35.466000
 93.6;   38.353000;    6.661300;   39.156000;   43.859000;    3.435000;   38.566000;   46.355000;  -10.062000;   29.190000
 96.0;   39.945000;   -8.439200;   32.691000;   36.743000;    3.509000;   42.372000;   30.499000;    5.883100;   42.418000
 98.4;   21.928000;    5.017500;   44.993000;   29.075000;    3.561600;   45.531000;   33.535000;   -6.592700;   35.717000
100.8;   26.445000;   -4.723500;   38.169000;   20.800000;    3.543700;   47.956000;   12.983000;    4.114300;   46.792000
103.2;    3.964000;    3.092200;   47.847000;   11.847000;    3.514600;   49.653000;   18.421000;   -2.749700;   40.079000
105.6;   10.370000;   -0.762030;   41.293000;    3.359600;    3.394000;   50.490000;   -4.630800;    2.102700;   48.206000
108.0;  -13.611000;    1.060200;   47.861000;   -5.262300;    3.241600;   50.629000;    2.203500;    1.277500;   41.832000
110.4;   -5.808100;    3.313300;   41.779000;  -14.034000;    3.055300;   50.018000;  -22.703000;   -0.017834;   46.771000
112.8;  -31.176000;   -1.046600;   44.925000;  -22.701000;    2.813300;   48.668000;  -13.828000;    5.232200;   41.157000
115.2;  -22.089000;    7.181000;   39.795000;  -31.116000;    2.543700;   46.418000;  -39.018000;   -2.063300;   42.295000
117.6;  -46.056000;   -3.030100;   39.163000;  -38.540000;    2.220000;   43.536000;  -29.636000;    8.948000;   37.827000
120.0;  -36.643000;   10.682000;   35.140000;  -45.656000;    1.889500;   39.938000;  -53.080000;   -3.954300;   35.337000
122.4;  -59.525000;   -4.830300;   30.805000;  -52.445000;    1.532200;   35.700000;  -43.155000;   12.169000;   32.090000
124.8;  -49.288000;   13.494000;   28.530000;  -58.541000;    1.175200;   30.834000;  -64.686000;   -5.613700;   25.746000
127.2;  -68.254000;   -6.313800;   19.986000;  -63.569000;    0.743910;   25.151000;  -55.025000;   14.615000;   24.270000
129.6;  -59.395000;   15.519000;   19.632000;  -66.775000;    0.364900;   19.231000;  -70.209000;   -6.841800;   14.235000
132.0;  -71.057000;   -7.284300;    8.284900;  -68.647000;   -0.011860;   12.968000;  -62.493000;   16.110000;   14.594000
134.4;  -64.214000;   16.517000;    9.388300;  -69.442000;   -0.366970;    6.746800;  -71.162000;   -7.571100;    2.437600
136.8;  -70.707000;   -7.763000;   -3.319800;  -69.584000;   -0.699670;    0.658670;  -64.950000;   16.730000;    4.251700
139.2;  -65.067000;   16.665000;   -0.961390;  -69.151000;   -1.021500;   -5.608400;  -69.570000;   -7.828300;   -9.335900
141.6;  -67.376000;   -7.785400;  -15.240000;  -67.950000;   -1.349400;  -11.752000;  -64.620000;   16.327000;   -5.980500
144.0;  -63.225000;   15.916000;  -11.254000;  -65.610000;   -1.635000;  -18.104000;  -63.607000;   -7.615500;  -21.231000
146.4;  -58.236000;   -7.324600;  -26.837000;  -61.791000;   -1.884100;  -24.231000;  -61.027000;   15.014000;  -16.375000
148.8;  -57.338000;   14.037000;  -21.305000;  -56.499000;   -2.080900;  -29.853000;  -51.782000;   -6.873500;  -31.779000
151.2;  -44.658000;   -6.292500;  -36.207000;  -49.937000;   -2.248900;  -35.033000;  -52.146000;   12.782000;  -25.995000
153.6;  -46.258000;   11.341000;  -29.990000;  -43.225000;   -2.345300;  -39.330000;  -37.572000;   -5.618900;  -39.905000
156.0;  -29.818000;   -4.857200;  -43.113000;  -36.131000;   -2.437900;  -43.142000;  -39.907000;    9.693700;  -33.521000
158.4;  -33.307000;    7.914000;  -36.493000;  -28.534000;   -2.452800;  -46.270000;  -21.303000;   -4.000200;  -45.689000
160.8;  -12.473000;   -3.102200;  -47.471000;  -20.256000;   -2.438600;  -48.691000;  -26.220000;    6.031700;  -38.937000
163.2;  -18.196000;    4.002600;  -40.834000;  -11.347000;   -2.381900;  -50.375000;   -3.456400;   -2.098400;  -48.519000
165.6;    5.025100;   -1.107100;  -48.880000;   -2.929400;   -2.255300;  -51.202000;  -10.187000;    2.021000;  -42.001000
168.0;   -2.032800;   -0.049947;  -42.491000;    5.665800;   -2.086900;  -51.343000;   13.983000;   -0.063016;  -48.541000
170.4;   23.041000;    0.996700;  -47.425000;   14.434000;   -1.875900;  -50.759000;    5.929700;   -2.101800;  -42.540000
172.8;   13.965000;   -4.077500;  -41.887000;   23.058000;   -1.664200;  -49.375000;   31.466000;    1.997800;  -45.604000
175.2;   39.332000;    3.045600;  -42.962000;   31.521000;   -1.372500;  -47.133000;   22.309000;   -6.029600;  -40.509000
177.6;   29.851000;   -7.805900;  -38.541000;   38.935000;   -1.055500;  -44.247000;   46.366000;    3.995500;  -39.832000
180.0;   53.332000;    4.933500;  -36.020000;   46.024000;   -0.697800;  -40.679000;   36.879000;   -9.504600;  -35.953000
182.4;   43.407000;  -11.035000;  -32.826000;   52.833000;   -0.359500;  -36.425000;   59.788000;    5.793800;  -31.511000
184.8;   64.915000;    6.582800;  -26.456000;   58.941000;    0.025854;  -31.591000;   49.560000;  -12.315000;  -29.305000
187.2;   55.312000;  -13.475000;  -25.007000;   63.970000;    0.428010;  -25.881000;   68.511000;    7.262400;  -20.694000
189.6;   70.465000;    7.819900;  -14.959000;   67.204000;    0.810750;  -19.985000;   59.663000;  -14.361000;  -20.328000
192.0;   62.550000;  -15.158000;  -15.153000;   69.106000;    1.187100;  -13.751000;   71.376000;    8.259100;   -9.080600
194.4;   71.525000;    8.573500;   -3.279500;   69.936000;    1.584400;   -7.560300;   64.340000;  -15.451000;  -10.037000
196.8;   65.096000;  -15.617000;   -4.951700;   70.058000;    1.865600;   -1.511600;   71.121000;    8.723200;    2.452800
199.2;   69.963000;    8.808700;    8.470000;   69.650000;    2.235300;    4.779000;   65.254000;  -15.500000;    0.281740
201.6;   64.764000;  -15.200000;    5.294200;   68.484000;    2.487300;   10.885000;   67.838000;    8.754200;   14.329000
204.0;   64.167000;    8.575000;   20.289000;   66.214000;    2.800600;   17.197000;   63.490000;  -14.687000;   10.497000
206.4;   61.105000;  -13.932000;   15.654000;   62.421000;    3.002300;   23.303000;   58.888000;    8.293400;   25.868000
208.8;   52.490000;    7.864400;   30.825000;   57.175000;    3.229700;   28.955000;   57.508000;  -12.882000;   20.582000
211.2;   52.292000;  -11.623000;   25.275000;   50.636000;    3.360000;   34.130000;   45.407000;    7.270300;   35.244000
213.6;   38.388000;    6.604100;   38.934000;   43.952000;    3.477600;   38.466000;   46.478000;  -10.187000;   29.261000
216.0;   39.923000;   -8.621100;   32.762000;   36.860000;    3.544400;   42.248000;   30.645000;    5.827100;   42.176000
218.4;   22.209000;    4.994700;   44.756000;   29.291000;    3.547100;   45.381000;   33.481000;   -6.807100;   35.746000
220.8;   26.318000;   -4.928500;   38.199000;   20.955000;    3.513400;   47.837000;   13.259000;    4.071700;   46.585000
223.2;    4.295300;    3.085500;   47.638000;   12.039000;    3.450700;   49.520000;   18.319000;   -2.915800;   40.086000
225.6;   10.266000;   -0.928190;   41.276000;    3.585000;    3.327100;   50.356000;   -4.221700;    2.083700;   47.994000
228.0;  -13.153000;    1.031400;   47.675000;   -5.028100;    3.162400;   50.525000;    2.162500;    1.124800;   41.828000
230.4;   -5.857600;    3.179300;   41.759000;  -13.758000;    2.950700;   49.929000;  -22.175000;   -0.010739;   46.603000
232.8;  -30.589000;   -1.048400;   44.776000;  -22.429000;    2.704700;   48.565000;  -13.917000;    5.124700;   41.078000
235.2;  -22.163000;    7.072800;   39.725000;  -30.831000;    2.393200;   46.367000;  -38.398000;   -2.067400;   42.201000
237.6;  -45.397000;   -3.025200;   39.116000;  -38.231000;    2.096400;   43.514000;  -29.645000;    8.821400;   37.774000
240.0;  -36.609000;   10.571000;   35.071000;  -45.281000;    1.762200;   39.943000;  -52.328000;   -3.962100;   35.333000
242.4;  -58.764000;   -4.837700;   30.879000;  -52.077000;    1.386500;   35.743000;  -43.092000;   12.088000;   32.002000
244.8;  -49.142000;   13.427000;   28.433000;  -58.146000;    1.034000;   30.896000;  -63.943000;   -5.601400;   25.836000
247.2;  -67.568000;   -6.298100;   20.174000;  -63.207000;    0.586330;   25.301000;  -54.809000;   14.524000;   24.223000
249.6;  -59.103000;   15.414000;   19.601000;  -66.446000;    0.230480;   19.415000;  -69.580000;   -6.855600;   14.498000
252.0;  -70.489000;   -7.297400;    8.642600;  -68.343000;   -0.164580;   13.215000;  -62.070000;   16.124000;   14.538000
254.4;  -63.773000;   16.546000;    9.355500;  -69.182000;   -0.439410;    7.011400;  -70.655000;   -7.572900;    2.792400
256.8;  -70.260000;   -7.766400;   -2.905500;  -69.337000;   -0.769870;    0.958730;  -64.544000;   16.662000;    4.330000
259.2;  -64.670000;   16.630000;   -0.853120;  -68.894000;   -1.053700;   -5.270200;  -69.165000;   -7.836900;   -8.861100
261.6;  -67.096000;   -7.798100;  -14.705000;  -67.773000;   -1.353500;  -11.360000;  -64.201000;   16.353000;   -5.854800
264.0;  -62.830000;   15.899000;  -11.050000;  -65.513000;   -1.612600;  -17.666000;  -63.507000;   -7.606500;  -20.674000
266.4;  -58.274000;   -7.311200;  -26.293000;  -61.805000;   -1.893100;  -23.823000;  -60.609000;   15.081000;  -16.173000
268.8;  -56.986000;   14.085000;  -21.081000;  -56.631000;   -2.056600;  -29.439000;  -51.947000;   -6.876200;  -31.251000
271.2;  -44.894000;   -6.297400;  -35.715000;  -50.184000;   -2.214200;  -34.633000;  -52.003000;   12.766000;  -25.718000
273.6;  -46.200000;   11.367000;  -29.711000;  -43.531000;   -2.293700;  -38.951000;  -37.927000;   -5.632700;  -39.413000
276.0;  -30.253000;   -4.859400;  -42.680000;  -36.479000;   -2.375100;  -42.773000;  -39.826000;    9.765400;  -33.216000
278.4;  -33.278000;    7.996200;  -36.196000;  -28.858000;   -2.401600;  -45.946000;  -21.783000;   -4.012100;  -45.295000
280.8;  -13.011000;   -3.101400;  -47.135000;  -20.647000;   -2.359800;  -48.414000;  -26.267000;    6.120200;  -38.660000
283.2;  -18.336000;    4.112400;  -40.575000;  -11.845000;   -2.289600;  -50.120000;   -4.007700;   -2.104400;  -48.236000
285.6;    4.484100;   -1.112300;  -48.630000;   -3.334700;   -2.187700;  -51.021000;  -10.322000;    2.121400;  -41.760000
288.0;   -2.198100;    0.046391;  -42.242000;    5.175700;   -2.029000;  -51.195000;   13.300000;   -0.073098;  -48.391000
290.4;   22.376000;    0.977660;  -47.355000;   13.966000;   -1.865100;  -50.636000;    5.717800;   -1.992800;  -42.301000
292.8;   13.700000;   -3.966600;  -41.662000;   22.617000;   -1.636200;  -49.329000;   30.816000;    2.011200;  -45.573000
295.2;   38.709000;    3.053000;  -43.014000;   31.084000;   -1.357200;  -47.144000;   21.958000;   -5.919900;  -40.281000
297.6;   29.445000;   -7.716000;  -38.319000;   38.577000;   -1.058500;  -44.306000;   45.753000;    4.009700;  -39.932000
300.0;   52.727000;    4.954800;  -36.184000;   45.669000;   -0.739250;  -40.785000;   36.403000;   -9.386600;  -35.781000
302.4;   42.869000;  -10.935000;  -32.682000;   52.545000;   -0.381900;  -36.574000;   59.247000;    5.812100;  -31.743000
304.8;   64.466000;    6.602300;  -26.717000;   58.652000;   -0.045466;  -31.773000;   48.928000;  -12.214000;  -29.194000
307.2;   54.590000;  -13.379000;  -24.981000;   63.738000;    0.338770;  -26.123000;   68.203000;    7.312500;  -21.042000
309.6;   70.251000;    7.890100;  -15.329000;   67.082000;    0.716280;  -20.231000;   58.902000;  -14.313000;  -20.332000
312.0;   61.839000;  -15.050000;  -15.243000;   69.005000;    1.068800;  -14.040000;   71.239000;    8.309900;   -9.462000
314.4;   71.440000;    8.628700;   -3.616500;   69.904000;    1.419000;   -7.830400;   63.682000;  -15.326000;  -10.156000
316.8;   64.493000;  -15.491000;   -5.122800;   70.084000;    1.733100;   -1.785100;   71.082000;    8.785900;    2.109800
319.2;   69.997000;    8.854300;    8.094600;   69.699000;    2.047800;    4.486700;   64.638000;  -15.423000;    0.066665
321.6;   64.168000;  -15.142000;    5.092000;   68.578000;    2.344300;   10.630000;   67.950000;    8.801300;   13.990000
324.0;   64.356000;    8.628400;   19.962000;   66.323000;    2.574700;   16.924000;   62.977000;  -14.583000;   10.263000
326.4;   60.650000;  -13.818000;   15.439000;   62.543000;    2.837200;   23.117000;   59.129000;    8.324000;   25.605000
328.8;   52.780000;    7.878900;   30.584000;   57.346000;    3.074300;   28.777000;   57.090000;  -12.836000;   20.324000
331.2;   52.023000;  -11.574000;   24.985000;   50.840000;    3.244600;   33.978000;   45.720000;    7.296800;   35.050000
333.6;   38.708000;    6.609700;   38.797000;   44.147000;    3.329700;   38.312000;   46.260000;  -10.143000;   28.997000
336.0;   39.873000;   -8.580800;   32.486000;   37.086000;    3.396600;   42.136000;   30.992000;    5.838300;   42.092000
338.4;   22.450000;    4.984300;   44.721000;   29.419000;    3.449600;   45.344000;   33.414000;   -6.749600;   35.525000
340.8;   26.401000;   -4.893400;   37.967000;   21.227000;    3.426400;   47.784000;   13.623000;    4.074700;   46.561000
343.2;    4.575000;    3.088100;   47.672000;   12.270000;    3.363000;   49.500000;   18.469000;   -2.896800;   39.901000
345.6;   10.483000;   -0.909520;   41.110000;    3.739300;    3.258400;   50.355000;   -4.001100;    2.076600;   48.065000
348.0;  -12.903000;    1.029600;   47.792000;   -4.820700;    3.119500;   50.562000;    2.408000;    1.097900;   41.682000
350.4;   -5.617500;    3.150900;   41.631000;  -13.618000;    2.927600;   50.014000;  -22.012000;   -0.021195;   46.766000
352.8;  -30.486000;   -1.065200;   44.974000;  -22.296000;    2.730000;   48.678000;  -13.600000;    5.090700;   41.004000
355.2;  -21.817000;    7.019000;   39.667000;  -30.761000;    2.449600;   46.487000;  -38.416000;   -2.099600;   42.398000
357.6;  -45.483000;   -3.077500;   39.314000;  -38.212000;    2.167700;   43.634000;  -29.319000;    8.787800;   37.711000
360.0;  -36.292000;   10.544000;   35.001000;  -45.318000;    1.846200;   40.091000;  -52.507000;   -4.008400;   35.552000
