# *CALIBRATION************
# Voff:  -0.000557, -0.000502, 0.000355
# Oe*Vref/V:  18766.300781, 19118.269531, 18920.400390
# mV/Vref/Oe:  0.053287, 0.052306, 0.052853
# Hrel:  0.000000, 0.000000, 0.000000
# ADC Vref:  4.000000
# ADC Bits:  16
# ADC samples:  10
# ADC Speed:  4
# Linearization
# A0:  0.000000, 0.000000, 0.000000
# A1:  1.000000, 1.000000, 1.000000
# A2:  0.000000, 0.000000, 0.000000
# A3:  0.222500, 0.222500, 0.222500
# A4:  0.000000, 0.000000, 0.000000
# A5:  3.403000, 3.403000, 3.403000
# Orthogonalization
# 1.000000, 0.000000, 0.000000
# 0.000000, 1.000000, 0.000000
# 0.000000, 0.000000, 1.000000
# EEPROM Cal Valid, Valid, Valid
# EEPROM Lin Valid, Valid, Valid
# EEPROM Ortho Not Valid
# Sensor ID:   USB25103-1715507101             
# Software Version:  MDTUSBMAG3D.V9.20220510
# ************************
# 
# SENSOR_NB_SAMPLE: 10 
# SENSOR_GAIN: 1 
# SENSOR_READ_DELAY: 0.7 
# SENSOR_Oe_mT: 0.1 
# working dist: 5 mm
# Rotation step angle: 1.2°
# sensor pos #1: 15 mm
# sensor pos #2: 35 mm
# sensor pos #3: 45 mm
# sensor pos #4: 55 mm
#
# angle[°]; X1_magn [mT]; Y1_magn [mT]; Z1_magn [mT]; X2_magn [mT]; Y2_magn [mT]; Z2_magn [mT]; X3_magn [mT]; Y3_magn [mT]; Z3_magn [mT]; X4_magn [mT]; Y4_magn [mT]; Z4_magn [mT]
  0.0; -100.170000;   -7.865300;   57.382000;  -82.351000;   -2.888900;   63.784000;  -80.292000;   -0.567110;   66.086000;  -66.428000;    0.626290;   67.780000
  1.2;  -54.261000;    0.985130;   69.537000;  -65.130000;   -0.126120;   68.530000;  -67.265000;   -2.434100;   66.620000;  -87.459000;   -7.177500;   61.207000
  2.4;  -73.545000;   -6.489300;   63.860000;  -55.960000;   -2.038300;   68.249000;  -54.862000;    0.209940;   69.936000;  -48.506000;    1.191200;   70.560000
  3.6;  -48.984000;    1.391800;   71.605000;  -50.931000;    0.542650;   70.916000;  -50.520000;   -1.578700;   69.378000;  -62.263000;   -5.865700;   65.507000
  4.8;  -56.492000;   -5.210400;   66.540000;  -50.797000;   -1.231000;   70.550000;  -52.575000;    0.731960;   72.141000;  -53.036000;    1.562800;   73.318000
  6.0;  -56.910000;    1.763300;   75.912000;  -56.553000;    1.021300;   74.166000;  -54.023000;   -0.868820;   72.377000;  -55.790000;   -4.583800;   67.618000
  7.2;  -57.757000;   -3.986400;   69.190000;  -56.908000;   -0.529770;   74.893000;  -59.495000;    1.332800;   76.932000;  -57.083000;    2.045600;   79.118000
  8.4;  -50.297000;    2.385000;   82.486000;  -58.070000;    1.737900;   80.250000;  -56.255000;   -0.209390;   78.035000;  -59.673000;   -3.338900;   71.496000
  9.6;  -58.543000;   -2.571200;   74.358000;  -48.982000;    0.232350;   81.279000;  -49.024000;    2.164000;   83.425000;  -34.888000;    2.791300;   85.284000
 10.8;  -15.316000;    3.185600;   86.604000;  -32.427000;    2.648300;   85.503000;  -34.197000;    0.687530;   83.628000;  -51.538000;   -1.714600;   77.211000
 12.0;  -38.200000;   -0.908780;   79.163000;  -16.409000;    1.188600;   84.615000;  -14.130000;    3.064600;   86.093000;    1.449200;    3.539200;   86.330000
 13.2;   10.898000;    3.765900;   85.025000;    0.357310;    3.418600;   85.321000;   -1.206700;    1.655400;   84.296000;  -22.039000;   -0.110060;   79.926000
 14.4;   -7.301300;    0.699470;   79.539000;    7.899000;    2.093000;   82.969000;    7.836000;    3.665100;   83.828000;   12.595000;    3.845400;   83.363000
 15.6;    8.986600;    3.953300;   82.151000;    8.139900;    3.882400;   82.238000;    9.831100;    2.475800;   81.403000;    2.206800;    1.489200;   78.330000
 16.8;    5.145700;    2.177000;   76.842000;    7.169300;    2.812900;   80.399000;    4.577500;    4.073600;   81.373000;    4.850200;    4.081800;   81.863000
 18.0;    4.832300;    4.256900;   82.310000;    1.748700;    4.316600;   81.352000;    4.264500;    3.121000;   80.183000;    3.970600;    2.864800;   75.871000
 19.2;    2.296600;    3.531000;   75.500000;    5.032800;    3.417100;   80.543000;    3.558200;    4.591800;   81.806000;   11.996000;    4.456300;   82.831000
 20.4;   27.161000;    4.738200;   82.662000;   12.850000;    4.989900;   82.031000;   12.521000;    3.780400;   80.882000;    3.769700;    4.262500;   75.522000
 21.6;   11.166000;    5.062000;   75.641000;   27.282000;    4.190400;   80.446000;   29.210000;    5.279700;   81.309000;   46.883000;    5.039600;   81.094000
 22.8;   63.814000;    5.245300;   77.934000;   47.945000;    5.595200;   79.036000;   45.388000;    4.586600;   78.612000;   24.938000;    5.860300;   74.973000
 24.0;   41.181000;    6.656000;   73.173000;   60.605000;    4.988400;   75.471000;   62.253000;    5.831500;   75.458000;   72.442000;    5.404400;   73.747000
 25.2;   73.116000;    5.403300;   69.398000;   68.926000;    5.904000;   71.251000;   68.810000;    5.299400;   71.454000;   55.529000;    7.320700;   70.231000
 26.4;   64.410000;    7.945800;   66.374000;   70.137000;    5.573200;   67.228000;   68.628000;    5.965600;   66.910000;   69.090000;    5.338700;   65.394000
 27.6;   64.150000;    5.279700;   62.243000;   64.621000;    5.965200;   63.187000;   67.001000;    5.770700;   63.370000;   67.019000;    8.427100;   62.362000
 28.8;   65.292000;    8.923700;   58.690000;   63.179000;    5.946900;   60.449000;   60.747000;    6.047000;   60.400000;   61.915000;    5.263600;   60.005000
 30.0;   65.344000;    5.345700;   58.150000;   60.310000;    6.137400;   58.310000;   61.992000;    6.102300;   58.228000;   62.758000;    9.480900;   55.684000
 31.2;   62.328000;    9.986800;   53.504000;   65.674000;    6.266900;   56.367000;   65.372000;    6.307600;   56.406000;   75.229000;    5.482400;   55.988000
 32.4;   90.530000;    5.619500;   52.754000;   76.858000;    6.450700;   53.749000;   75.523000;    6.494300;   53.963000;   66.152000;   10.486000;   51.483000
 33.6;   75.595000;   11.056000;   48.955000;   90.263000;    6.733300;   50.387000;   92.597000;    6.647100;   49.769000;  106.930000;    5.643700;   47.903000
 34.8;  117.820000;    5.652700;   41.693000;  107.340000;    6.638500;   44.300000;  105.020000;    6.960400;   45.420000;   89.010000;   11.531000;   45.531000
 36.0;  102.650000;   12.035000;   40.819000;  115.100000;    7.132100;   39.374000;  116.340000;    6.648600;   37.900000;  121.640000;    5.542900;   34.762000
 37.2;  120.750000;    5.354300;   27.869000;  119.050000;    6.475300;   31.031000;  118.940000;    7.219500;   32.776000;  112.350000;   12.388000;   35.259000
 38.4;  117.010000;   12.625000;   28.992000;  118.590000;    7.223600;   26.026000;  117.810000;    6.310600;   24.165000;  117.690000;    5.113500;   21.121000
 39.6;  113.940000;    4.831900;   14.778000;  114.790000;    6.026800;   17.458000;  115.860000;    7.198600;   19.309000;  117.540000;   12.741000;   22.424000
 40.8;  115.750000;   12.815000;   16.235000;  112.680000;    7.050000;   13.321000;  111.510000;    5.871500;   11.594000;  110.490000;    4.587000;    9.187300
 42.0;  107.680000;    4.347300;    4.255000;  108.540000;    5.585500;    6.318500;  109.650000;    6.954400;    7.967100;  113.280000;   12.749000;   10.641000
 43.2;  110.910000;   12.728000;    5.773100;  107.270000;    6.861400;    3.366700;  106.320000;    5.333100;    1.824600;  105.610000;    4.126200;   -0.080412
 44.4;  104.160000;    3.917500;   -4.184500;  104.610000;    5.119100;   -2.476900;  105.380000;    6.714300;   -0.977650;  108.900000;   12.615000;    1.320900
 45.6;  107.300000;   12.556000;   -2.898900;  104.090000;    6.558600;   -5.115400;  103.520000;    4.954800;   -6.567700;  103.320000;    3.740500;   -8.217000
 46.8;  103.130000;    3.574300;  -12.194000;  103.080000;    4.759100;  -10.584000;  103.420000;    6.445100;   -9.103100;  106.290000;   12.525000;   -6.823000
 48.0;  105.870000;   12.488000;  -10.505000;  103.380000;    6.255700;  -12.976000;  103.280000;    4.647900;  -14.460000;  103.600000;    3.353300;  -16.196000
 49.2;  104.580000;    3.195300;  -20.285000;  104.020000;    4.421900;  -18.452000;  103.850000;    6.161300;  -16.825000;  105.940000;   12.375000;  -14.092000
 50.4;  106.490000;   12.240000;  -17.831000;  104.880000;    5.998500;  -20.986000;  105.300000;    4.292000;  -22.747000;  106.130000;    3.078100;  -24.826000
 51.6;  108.200000;    2.871900;  -29.981000;  107.180000;    4.039600;  -27.656000;  106.450000;    5.870000;  -25.705000;  107.590000;   12.063000;  -21.943000
 52.8;  109.080000;   11.839000;  -26.307000;  108.410000;    5.656400;  -30.743000;  109.440000;    3.860700;  -32.885000;  110.430000;    2.661700;  -35.643000
 54.0;  112.220000;    2.357800;  -41.797000;  111.650000;    3.572400;  -38.731000;  110.420000;    5.452900;  -36.356000;  110.860000;   11.523000;  -31.052000
 55.2;  112.590000;   11.204000;  -36.048000;  111.810000;    5.280400;  -42.122000;  113.210000;    3.212100;  -44.713000;  112.310000;    1.972400;  -48.052000
 56.4;  108.600000;    1.567600;  -54.441000;  112.550000;    2.793500;  -51.118000;  111.490000;    4.951800;  -48.362000;  113.860000;   10.705000;  -41.554000
 57.6;  113.350000;   10.224000;  -47.454000;  107.340000;    4.604500;  -54.622000;  107.560000;    2.322700;  -57.362000;   98.630000;    1.175600;  -60.409000
 58.8;   83.009000;    0.663250;  -65.182000;   96.132000;    1.817800;  -62.801000;   97.294000;    4.198600;  -60.231000;  109.170000;    9.714200;  -53.181000
 60.0;  100.230000;    9.107500;  -58.134000;   82.748000;    3.711000;  -64.548000;   80.562000;    1.341700;  -66.800000;   66.450000;    0.197250;  -68.407000
 61.2;   54.207000;   -0.139940;  -70.204000;   65.408000;    0.945920;  -69.266000;   67.653000;    3.305500;  -67.367000;   87.275000;    8.412500;  -61.976000
 62.4;   73.338000;    7.728100;  -64.609000;   56.227000;    2.874600;  -69.077000;   54.946000;    0.601270;  -70.708000;   48.295000;   -0.367710;  -71.261000
 63.6;   48.490000;   -0.542090;  -72.317000;   50.784000;    0.321220;  -71.684000;   50.641000;    2.457500;  -70.167000;   62.149000;    7.020500;  -66.255000
 64.8;   56.482000;    6.377100;  -67.276000;   50.773000;    2.088200;  -71.360000;   52.228000;    0.080745;  -72.958000;   52.332000;   -0.721330;  -74.015000
 66.0;   56.170000;   -0.896080;  -76.597000;   56.103000;   -0.188480;  -74.953000;   53.956000;    1.699100;  -73.206000;   55.813000;    5.735600;  -68.380000
 67.2;   57.825000;    5.116800;  -69.939000;   56.761000;    1.436900;  -75.705000;   58.944000;   -0.393480;  -77.685000;   56.453000;   -1.137300;  -79.765000
 68.4;   49.898000;   -1.489000;  -83.102000;   57.526000;   -0.824760;  -80.967000;   56.266000;    1.063900;  -78.865000;   59.847000;    4.359600;  -72.302000
 69.6;   58.768000;    3.617600;  -75.157000;   48.961000;    0.665120;  -82.012000;   48.672000;   -1.295600;  -84.097000;   34.977000;   -1.874000;  -85.828000
 70.8;   15.618000;   -2.271300;  -87.157000;   32.282000;   -1.747100;  -86.195000;   34.435000;    0.170740;  -84.433000;   51.602000;    2.873100;  -77.886000
 72.0;   38.472000;    2.031000;  -79.948000;   16.309000;   -0.318800;  -85.391000;   13.729000;   -2.145100;  -86.797000;   -1.643600;   -2.604000;  -86.958000
 73.2;  -11.336000;   -2.824300;  -85.658000;   -0.837210;   -2.517400;  -86.005000;    0.985170;   -0.780320;  -84.975000;   21.996000;    1.219300;  -80.638000
 74.4;    7.282900;    0.420170;  -80.232000;   -8.197900;   -1.198500;  -83.656000;   -8.394000;   -2.763800;  -84.465000;  -13.339000;   -2.971100;  -83.964000
 75.6;   -9.989100;   -3.066300;  -82.657000;   -8.885100;   -2.966600;  -82.810000;  -10.323000;   -1.564800;  -82.040000;   -2.331200;   -0.383400;  -79.025000
 76.8;   -5.437200;   -1.089900;  -77.503000;   -7.741900;   -1.914700;  -80.964000;   -5.399400;   -3.139100;  -81.868000;   -5.839200;   -3.165300;  -82.263000
 78.0;   -5.524000;   -3.332900;  -82.625000;   -2.509700;   -3.391200;  -81.731000;   -4.737500;   -2.214600;  -80.655000;   -4.337600;   -1.775100;  -76.352000
 79.2;   -2.744300;   -2.443800;  -75.923000;   -5.310700;   -2.531600;  -80.948000;   -3.970300;   -3.648400;  -82.188000;  -12.023000;   -3.571100;  -83.113000
 80.4;  -26.436000;   -3.832200;  -82.957000;  -12.860000;   -3.987900;  -82.380000;  -12.327000;   -2.858300;  -81.282000;   -3.995200;   -3.173100;  -76.029000
 81.6;  -11.146000;   -3.960600;  -76.105000;  -26.553000;   -3.236200;  -80.901000;  -28.723000;   -4.332500;  -81.691000;  -45.792000;   -4.093200;  -81.454000
 82.8;  -62.826000;   -4.301500;  -78.398000;  -47.278000;   -4.637600;  -79.485000;  -44.423000;   -3.628300;  -79.134000;  -24.599000;   -4.779500;  -75.432000
 84.0;  -41.007000;   -5.535600;  -73.585000;  -59.993000;   -3.986000;  -76.032000;  -61.890000;   -4.847100;  -75.935000;  -72.055000;   -4.400500;  -74.242000
 85.2;  -73.135000;   -4.397100;  -69.904000;  -68.751000;   -4.957600;  -71.689000;  -68.425000;   -4.340000;  -72.002000;  -55.302000;   -6.247300;  -70.619000
 86.4;  -64.287000;   -6.874700;  -66.786000;  -70.013000;   -4.599100;  -67.790000;  -68.763000;   -4.980400;  -67.404000;  -69.437000;   -4.346700;  -65.892000
 87.6;  -64.590000;   -4.292900;  -62.701000;  -64.903000;   -5.015500;  -63.635000;  -67.036000;   -4.757800;  -63.929000;  -66.948000;   -7.449700;  -62.671000
 88.8;  -65.375000;   -7.971700;  -58.954000;  -63.259000;   -4.947500;  -60.914000;  -61.027000;   -5.040900;  -60.875000;  -62.246000;   -4.254500;  -60.381000
 90.0;  -65.369000;   -4.319800;  -58.501000;  -60.512000;   -5.168200;  -58.697000;  -62.023000;   -5.143200;  -58.660000;  -62.901000;   -8.451600;  -56.033000
 91.2;  -62.469000;   -8.971000;  -53.816000;  -65.623000;   -5.356800;  -56.760000;  -65.292000;   -5.238800;  -56.840000;  -74.887000;   -4.452400;  -56.340000
 92.4;  -89.753000;   -4.578200;  -53.138000;  -76.518000;   -5.468400;  -54.145000;  -75.217000;   -5.534500;  -54.336000;  -66.210000;   -9.547500;  -51.712000
 93.6;  -75.394000;  -10.108000;  -49.211000;  -89.541000;   -5.768300;  -50.875000;  -91.895000;   -5.571100;  -50.268000; -105.700000;   -4.691400;  -48.396000
 94.8; -116.760000;   -4.709700;  -42.280000; -106.580000;   -5.658900;  -44.872000; -104.240000;   -5.992700;  -45.923000;  -88.648000;  -10.684000;  -45.716000
 96.0; -101.970000;  -11.089000;  -41.213000; -114.450000;   -6.168900;  -39.937000; -115.770000;   -5.624900;  -38.508000; -121.050000;   -4.552100;  -35.435000
 97.2; -120.370000;   -4.366900;  -28.593000; -118.610000;   -5.529700;  -31.673000; -118.510000;   -6.192800;  -33.403000; -111.640000;  -11.464000;  -35.655000
 98.4; -116.330000;  -11.725000;  -29.474000; -118.220000;   -6.294400;  -26.658000; -117.600000;   -5.345900;  -24.884000; -117.470000;   -4.052500;  -21.911000
 99.6; -113.780000;   -3.781000;  -15.595000; -114.610000;   -5.117400;  -18.215000; -115.620000;   -6.263000;  -20.011000; -116.790000;  -11.907000;  -22.911000
100.8; -115.050000;  -11.993000;  -16.740000; -112.520000;   -6.093900;  -14.013000; -111.390000;   -4.862000;  -12.327000; -110.340000;   -3.596200;   -9.988900
102.0; -107.550000;   -3.357900;   -5.053700; -108.430000;   -4.637600;   -7.052900; -109.470000;   -6.000500;   -8.671100; -112.590000;  -12.058000;  -11.174000
103.2; -110.260000;  -12.043000;   -6.313100; -107.060000;   -5.988200;   -4.035200; -106.240000;   -4.361600;   -2.571100; -105.430000;   -3.178700;   -0.722300
104.4; -103.960000;   -2.971800;    3.382900; -104.470000;   -4.239500;    1.732500; -105.150000;   -5.784300;    0.274350; -108.280000;  -11.981000;   -1.873400
105.6; -106.740000;  -11.924000;    2.290200; -103.880000;   -5.688000;    4.398000; -103.430000;   -4.031900;    5.796000; -103.120000;   -2.824700;    7.403200
106.8; -102.910000;   -2.666000;   11.346000; -102.970000;   -3.857200;    9.782300; -103.190000;   -5.605500;    8.374300; -105.730000;  -11.859000;    6.166300
108.0; -105.310000;  -11.774000;    9.831100; -103.140000;   -5.417600;   12.234000; -103.140000;   -3.701800;   13.706000; -103.360000;   -2.465100;   15.345000
109.2; -104.310000;   -2.331400;   19.401000; -103.850000;   -3.520400;   17.647000; -103.610000;   -5.272000;   16.093000; -105.380000;  -11.558000;   13.365000
110.4; -105.950000;  -11.425000;   17.088000; -104.620000;   -5.138300;   20.241000; -105.120000;   -3.368400;   21.911000; -105.820000;   -2.190700;   23.877000
111.6; -107.840000;   -2.011800;   28.961000; -106.960000;   -3.165600;   26.747000; -106.150000;   -5.012900;   24.870000; -107.020000;  -11.194000;   21.138000
112.8; -108.510000;  -10.972000;   25.488000; -108.090000;   -4.833600;   29.908000; -109.180000;   -2.948700;   31.987000; -110.120000;   -1.743000;   34.554000
114.0; -111.910000;   -1.458100;   40.640000; -111.350000;   -2.671600;   37.779000; -110.020000;   -4.628300;   35.465000; -110.180000;  -10.879000;   30.253000
115.2; -111.860000;  -10.522000;   35.205000; -111.430000;   -4.405300;   41.199000; -112.800000;   -2.410600;   43.670000; -112.050000;   -1.187000;   46.821000
116.4; -108.650000;   -0.789660;   53.144000; -112.210000;   -2.019300;   50.002000; -111.060000;   -4.163700;   47.355000; -113.000000;  -10.081000;   40.636000
117.6; -112.420000;   -9.562500;   46.442000; -107.080000;   -3.793300;   53.549000; -107.400000;   -1.560000;   56.182000;  -99.197000;   -0.357260;   59.101000
118.8;  -84.138000;    0.121070;   63.914000;  -96.218000;   -1.091000;   61.619000;  -97.363000;   -3.360200;   59.137000; -108.460000;   -8.933300;   52.094000
120.0;  -99.708000;   -8.264900;   57.038000;  -82.913000;   -2.963600;   63.428000;  -80.941000;   -0.619760;   65.628000;  -67.835000;    0.564300;   67.202000
121.2;  -55.469000;    0.908950;   69.089000;  -65.988000;   -0.189600;   68.174000;  -68.094000;   -2.501700;   66.295000;  -86.988000;   -7.592400;   60.846000
122.4;  -73.196000;   -6.888900;   63.483000;  -56.658000;   -2.071900;   68.054000;  -55.504000;    0.107630;   69.619000;  -49.182000;    1.150200;   70.200000
123.6;  -49.072000;    1.331300;   71.286000;  -51.204000;    0.421290;   70.667000;  -50.908000;   -1.664200;   69.183000;  -62.081000;   -6.237600;   65.096000
124.8;  -56.510000;   -5.562900;   66.142000;  -50.890000;   -1.307200;   70.398000;  -52.457000;    0.631520;   71.903000;  -52.716000;    1.524300;   72.959000
126.0;  -56.466000;    1.715500;   75.488000;  -56.190000;    0.892520;   73.908000;  -53.859000;   -0.911760;   72.226000;  -55.809000;   -4.903800;   67.264000
127.2;  -57.710000;   -4.278000;   68.830000;  -56.549000;   -0.630590;   74.689000;  -58.977000;    1.181200;   76.596000;  -56.880000;    1.961600;   78.638000
128.4;  -50.682000;    2.284200;   81.982000;  -57.651000;    1.542600;   79.853000;  -55.987000;   -0.260170;   77.793000;  -59.601000;   -3.586800;   71.123000
129.6;  -58.479000;   -2.833700;   73.945000;  -48.875000;    0.107260;   80.900000;  -49.175000;    1.990000;   82.993000;  -36.308000;    2.630700;   84.772000
130.8;  -17.126000;    3.007900;   86.192000;  -33.011000;    2.423900;   85.093000;  -34.397000;    0.526960;   83.273000;  -51.478000;   -2.015500;   76.729000
132.0;  -38.522000;   -1.151500;   78.761000;  -16.839000;    1.074700;   84.305000;  -14.900000;    2.855900;   85.760000;   -0.234640;    3.394300;   86.015000
133.2;    9.744900;    3.606800;   84.809000;   -0.373920;    3.204600;   85.095000;   -1.762000;    1.504200;   83.950000;  -22.635000;   -0.310210;   79.611000
134.4;   -7.979100;    0.492610;   79.251000;    7.384100;    1.969800;   82.734000;    7.302700;    3.459700;   83.619000;   12.113000;    3.744200;   83.200000
135.6;    9.098000;    3.845400;   81.971000;    8.027300;    3.659800;   82.036000;    9.640500;    2.351400;   81.222000;    1.706100;    1.221100;   77.973000
136.8;    4.917300;    1.980200;   76.502000;    7.222100;    2.689700;   80.182000;    4.760100;    3.853200;   81.147000;    5.051500;    3.957100;   81.604000
138.0;    4.620000;    4.111600;   81.988000;    1.964500;    4.093700;   81.110000;    4.440800;    2.989900;   79.904000;    3.987100;    2.658700;   75.459000
139.2;    2.511400;    3.357400;   75.069000;    5.043400;    3.322600;   80.245000;    3.530000;    4.376800;   81.529000;   10.984000;    4.294200;   82.525000
140.4;   25.116000;    4.554100;   82.478000;   12.263000;    4.713600;   81.793000;   12.133000;    3.661300;   80.571000;    3.913000;    4.085900;   75.140000
141.6;   11.060000;    4.904000;   75.223000;   26.323000;    4.062400;   80.171000;   28.022000;    5.060800;   81.157000;   44.412000;    4.814800;   81.057000
142.8;   61.745000;    5.036200;   78.083000;   46.595000;    5.374900;   78.986000;   44.120000;    4.489200;   78.420000;   24.383000;    5.715400;   74.617000
144.0;   40.547000;    6.508900;   72.792000;   59.362000;    4.902500;   75.401000;   61.162000;    5.625400;   75.531000;   71.333000;    5.159800;   73.998000
145.2;   72.820000;    5.185200;   69.689000;   68.208000;    5.771800;   71.298000;   67.903000;    5.228100;   71.429000;   54.733000;    7.204600;   70.020000
146.4;   63.858000;    7.845700;   66.217000;   69.617000;    5.504400;   67.266000;   68.475000;    5.863300;   67.055000;   69.319000;    5.106400;   65.677000
147.6;   64.569000;    5.059300;   62.419000;   64.779000;    5.867400;   63.276000;   66.836000;    5.714700;   63.412000;   66.636000;    8.452100;   61.977000
148.8;   65.195000;    8.986800;   58.292000;   63.176000;    5.948400;   60.425000;   61.037000;    5.954400;   60.481000;   62.196000;    5.087700;   60.077000
150.0;   65.226000;    5.137800;   58.179000;   60.514000;    6.009700;   58.371000;   61.991000;    6.124700;   58.174000;   62.840000;    9.499900;   55.333000
151.2;   62.459000;   10.005000;   53.107000;   65.545000;    6.324800;   56.270000;   65.352000;    6.242300;   56.415000;   74.490000;    5.298300;   56.056000
152.4;   89.304000;    5.418600;   52.865000;   76.472000;    6.411100;   53.783000;   75.080000;    6.532400;   53.884000;   66.120000;   10.557000;   51.056000
153.6;   75.163000;   11.154000;   48.540000;   89.370000;    6.800500;   50.373000;   91.793000;    6.576900;   49.865000;  105.540000;    5.452200;   48.150000
154.8;  116.870000;    5.474600;   42.062000;  106.500000;    6.645900;   44.490000;  104.030000;    7.025000;   45.462000;   88.135000;   11.625000;   45.228000
156.0;  101.390000;   12.163000;   40.641000;  114.180000;    7.263900;   39.514000;  115.700000;    6.634700;   38.166000;  121.280000;    5.442500;   35.214000
157.2;  120.780000;    5.269600;   28.337000;  118.780000;    6.529100;   31.378000;  118.310000;    7.352100;   32.997000;  111.120000;   12.477000;   35.216000
158.4;  115.970000;   12.748000;   29.021000;  118.160000;    7.432300;   26.228000;  117.860000;    6.384600;   24.501000;  117.870000;    5.048500;   21.580000
159.6;  114.220000;    4.787100;   15.189000;  114.970000;    6.103400;   17.812000;  115.680000;    7.346500;   19.558000;  116.590000;   12.925000;   22.437000
160.8;  114.940000;   13.011000;   16.296000;  112.540000;    7.279200;   13.544000;  111.710000;    5.899900;   11.869000;  110.820000;    4.505600;    9.542800
162.0;  107.990000;    4.262500;    4.554700;  108.830000;    5.597400;    6.592400;  109.550000;    7.236700;    8.185100;  112.530000;   13.119000;   10.667000
163.2;  110.210000;   13.107000;    5.833700;  107.170000;    7.118300;    3.546200;  106.570000;    5.468600;    2.028200;  105.860000;    4.081800;    0.179370
164.4;  104.370000;    3.898100;   -3.959100;  104.840000;    5.286700;   -2.295400;  105.270000;    6.949900;   -0.836860;  108.250000;   12.973000;    1.394400
165.6;  106.700000;   12.925000;   -2.777700;  104.020000;    6.769200;   -4.934700;  103.750000;    5.168000;   -6.376300;  103.510000;    3.714300;   -7.994100
166.8;  103.280000;    3.552700;  -11.952000;  103.260000;    4.974200;  -10.368000;  103.290000;    6.718400;   -8.929400;  105.720000;   12.880000;   -6.668200
168.0;  105.290000;   12.790000;  -10.307000;  103.260000;    6.517900;  -12.802000;  103.430000;    4.825600;  -14.283000;  103.690000;    3.378300;  -15.958000
169.2;  104.620000;    3.227000;  -20.034000;  104.140000;    4.624700;  -18.268000;  103.680000;    6.423400;  -16.676000;  105.350000;   12.592000;  -13.909000
170.4;  105.880000;   12.461000;  -17.645000;  104.650000;    6.299800;  -20.853000;  105.400000;    4.475000;  -22.565000;  106.100000;    3.110200;  -24.558000
171.6;  108.090000;    2.920500;  -29.657000;  107.210000;    4.275600;  -27.432000;  106.180000;    6.128800;  -25.496000;  106.920000;   12.246000;  -21.668000
172.8;  108.360000;   12.024000;  -26.016000;  108.080000;    5.939100;  -30.538000;  109.390000;    4.055300;  -32.681000;  110.290000;    2.720000;  -35.254000
174.0;  112.030000;    2.468700;  -41.304000;  111.540000;    3.777400;  -38.439000;  109.990000;    5.812900;  -36.045000;  110.070000;   11.826000;  -30.686000
175.2;  111.720000;   11.486000;  -35.644000;  111.350000;    5.573900;  -41.808000;  112.970000;    3.511200;  -44.365000;  112.210000;    2.137500;  -47.562000
176.4;  108.750000;    1.755800;  -53.948000;  112.280000;    3.134400;  -50.753000;  111.010000;    5.283800;  -48.022000;  112.800000;   11.119000;  -41.147000
177.6;  112.290000;   10.600000;  -46.894000;  106.980000;    4.934600;  -54.215000;  107.430000;    2.688200;  -56.960000;   99.292000;    1.308500;  -59.956000
178.8;   84.138000;    0.852200;  -64.787000;   96.325000;    2.159900;  -62.416000;   97.135000;    4.573200;  -59.790000;  108.380000;   10.008000;  -52.588000
180.0;   99.786000;    9.375900;  -57.461000;   82.982000;    4.073200;  -64.122000;   81.037000;    1.671800;  -66.463000;   67.981000;    0.436970;  -68.052000
181.2;   55.524000;    0.097921;  -69.937000;   65.982000;    1.295400;  -68.984000;   68.096000;    3.635600;  -66.990000;   87.407000;    8.653000;  -61.329000
182.4;   73.660000;    7.931600;  -64.026000;   56.557000;    3.174400;  -68.782000;   55.331000;    0.961600;  -70.458000;   49.033000;   -0.155990;  -71.082000
183.6;   48.829000;   -0.334850;  -72.153000;   50.942000;    0.653170;  -71.477000;   50.737000;    2.758100;  -69.919000;   62.496000;    7.117600;  -65.752000
184.8;   56.656000;    6.452100;  -66.824000;   50.539000;    2.363400;  -71.106000;   52.112000;    0.431740;  -72.699000;   52.396000;   -0.548440;  -73.823000
186.0;   56.177000;   -0.713480;  -76.331000;   55.771000;    0.165510;  -74.670000;   53.409000;    2.022100;  -72.874000;   55.753000;    5.829300;  -67.903000
187.2;   57.524000;    5.199000;  -69.466000;   56.098000;    1.700900;  -75.339000;   58.565000;   -0.124630;  -77.352000;   56.668000;   -0.962170;  -79.440000
188.4;   50.610000;   -1.256800;  -82.795000;   57.338000;   -0.487200;  -80.592000;   55.554000;    1.341000;  -78.415000;   59.306000;    4.595200;  -71.681000
189.6;   58.190000;    3.835300;  -74.503000;   48.598000;    0.915300;  -81.547000;   48.876000;   -0.918860;  -83.709000;   36.251000;   -1.667200;  -85.547000
190.8;   17.242000;   -2.057700;  -86.959000;   33.072000;   -1.424400;  -85.889000;   34.432000;    0.437350;  -83.894000;   51.429000;    2.989200;  -77.265000
192.0;   38.590000;    2.155700;  -79.282000;   16.986000;   -0.062642;  -84.994000;   14.872000;   -1.859800;  -86.584000;    0.041725;   -2.416200;  -86.884000
193.2;  -10.202000;   -2.639100;  -85.658000;    0.157920;   -2.211200;  -85.831000;    1.782400;   -0.543210;  -84.598000;   22.879000;    1.277900;  -80.168000
194.4;    8.128500;    0.459750;  -79.833000;   -7.614000;   -0.988310;  -83.389000;   -7.810100;   -2.452400;  -84.353000;  -12.811000;   -2.759400;  -83.999000
195.6;   -9.922100;   -2.859400;  -82.687000;   -8.726100;   -2.700000;  -82.726000;  -10.055000;   -1.408400;  -81.810000;   -1.640300;   -0.309090;  -78.551000
196.8;   -4.979000;   -1.056300;  -77.078000;   -7.834300;   -1.770600;  -80.756000;   -5.578300;   -2.918100;  -81.788000;   -5.949200;   -2.972200;  -82.270000
198.0;   -5.457700;   -3.123100;  -82.570000;   -2.811300;   -3.171600;  -81.634000;   -5.054900;   -2.094700;  -80.436000;   -4.292100;   -1.732100;  -76.080000
199.2;   -2.853500;   -2.410600;  -75.631000;   -5.581900;   -2.418400;  -80.714000;   -4.240800;   -3.453500;  -82.028000;  -11.580000;   -3.320600;  -83.105000
200.4;  -25.543000;   -3.569700;  -83.003000;  -12.753000;   -3.795200;  -82.251000;  -12.428000;   -2.783300;  -80.988000;   -4.218100;   -3.157800;  -75.618000
201.6;  -11.176000;   -3.951600;  -75.644000;  -26.291000;   -3.210800;  -80.549000;  -28.230000;   -4.159300;  -81.596000;  -44.617000;   -3.873600;  -81.573000
202.8;  -61.867000;   -4.086100;  -78.585000;  -46.592000;   -4.529300;  -79.378000;  -43.834000;   -3.632000;  -78.838000;  -24.304000;   -4.764200;  -74.992000
204.0;  -40.056000;   -5.524400;  -73.306000;  -58.980000;   -4.065200;  -75.831000;  -61.066000;   -4.798900;  -75.958000;  -71.428000;   -4.242500;  -74.534000
205.2;  -72.942000;   -4.277600;  -70.240000;  -68.263000;   -4.913200;  -71.855000;  -67.514000;   -4.409100;  -71.895000;  -54.275000;   -6.243600;  -70.369000
206.4;  -63.313000;   -6.880600;  -66.603000;  -69.365000;   -4.663000;  -67.796000;  -68.509000;   -4.999800;  -67.584000;  -69.539000;   -4.203700;  -66.240000
207.6;  -64.772000;   -4.170800;  -63.015000;  -64.831000;   -5.077100;  -63.797000;  -66.610000;   -4.912800;  -63.929000;  -66.238000;   -7.438500;  -62.560000
208.8;  -64.873000;   -7.966100;  -58.885000;  -63.029000;   -5.094600;  -60.950000;  -61.071000;   -5.116700;  -61.053000;  -62.370000;   -4.231700;  -60.704000
210.0;  -65.308000;   -4.319400;  -58.823000;  -60.499000;   -5.281700;  -58.887000;  -61.866000;   -5.306400;  -58.730000;  -62.539000;   -8.437400;  -56.007000
211.2;  -62.052000;   -8.972500;  -53.766000;  -65.404000;   -5.504600;  -56.861000;  -65.200000;   -5.435900;  -56.957000;  -74.615000;   -4.460200;  -56.717000
212.4;  -89.418000;   -4.605900;  -53.551000;  -76.133000;   -5.663300;  -54.330000;  -74.880000;   -5.716400;  -54.456000;  -65.721000;   -9.611800;  -51.585000
213.6;  -74.617000;  -10.206000;  -49.106000;  -89.025000;   -5.987800;  -50.993000;  -91.276000;   -5.827600;  -50.522000; -105.510000;   -4.730600;  -48.850000
214.8; -116.890000;   -4.768700;  -42.778000; -106.000000;   -5.891500;  -45.175000; -103.620000;   -6.216400;  -46.121000;  -87.474000;  -10.771000;  -45.695000
216.0; -100.660000;  -11.254000;  -41.171000; -113.850000;   -6.448600;  -40.196000; -115.460000;   -5.919100;  -38.914000; -121.440000;   -4.728300;  -35.996000
217.2; -121.010000;   -4.569300;  -29.134000; -118.690000;   -5.809700;  -32.133000; -118.080000;   -6.530000;  -33.709000; -110.350000;  -11.589000;  -35.824000
218.4; -115.330000;  -11.857000;  -29.673000; -117.970000;   -6.580400;  -26.930000; -117.860000;   -5.646200;  -25.260000; -118.110000;   -4.329200;  -22.327000
219.6; -114.470000;   -4.074900;  -15.957000; -114.970000;   -5.447100;  -18.570000; -115.470000;   -6.648800;  -20.263000; -116.080000;  -12.045000;  -23.173000
220.8; -114.480000;  -12.132000;  -17.040000; -112.360000;   -6.598300;  -14.265000; -111.750000;   -5.229100;  -12.623000; -111.060000;   -3.830700;  -10.304000
222.0; -108.250000;   -3.603600;   -5.322300; -108.900000;   -4.974000;   -7.353000; -109.400000;   -6.474000;   -8.913900; -112.050000;  -12.243000;  -11.439000
223.2; -109.770000;  -12.224000;   -6.590600; -107.040000;   -6.355300;   -4.279500; -106.620000;   -4.792900;   -2.808000; -106.140000;   -3.410200;   -0.953260
224.4; -104.630000;   -3.208600;    3.204800; -104.950000;   -4.472900;    1.511600; -105.170000;   -6.150600;    0.060383; -107.810000;  -12.163000;   -2.129900
225.6; -106.230000;  -12.110000;    2.048900; -103.830000;   -6.118100;    4.217300; -103.830000;   -4.447200;    5.623800; -103.820000;   -2.972600;    7.232800
226.8; -103.600000;   -2.817600;   11.211000; -103.330000;   -4.256300;    9.645500; -103.160000;   -5.981900;    8.192500; -105.230000;  -11.990000;    5.929400
228.0; -104.830000;  -11.895000;    9.562400; -103.110000;   -5.786900;   12.054000; -103.530000;   -4.079400;   13.530000; -104.020000;   -2.658500;   15.205000
229.2; -104.970000;   -2.518900;   19.285000; -104.220000;   -3.906500;   17.517000; -103.560000;   -5.660700;   15.908000; -104.870000;  -11.738000;   13.126000
230.4; -105.380000;  -11.590000;   16.834000; -104.550000;   -5.566600;   20.087000; -105.520000;   -3.680900;   21.791000; -106.490000;   -2.356500;   23.814000
231.6; -108.510000;   -2.178300;   28.915000; -107.380000;   -3.461000;   26.651000; -106.040000;   -5.439300;   24.730000; -106.430000;  -11.408000;   20.871000
232.8; -107.900000;  -11.188000;   25.200000; -107.970000;   -5.258900;   29.766000; -109.520000;   -3.328100;   31.899000; -110.730000;   -1.991300;   34.534000
234.0; -112.550000;   -1.715300;   40.599000; -111.770000;   -2.990900;   37.675000; -109.900000;   -5.068100;   35.278000; -109.550000;  -11.001000;   29.921000
235.2; -111.200000;  -10.649000;   34.820000; -111.300000;   -4.826200;   40.965000; -113.230000;   -2.737700;   43.560000; -112.860000;   -1.309800;   46.815000
236.4; -109.500000;   -0.922960;   53.247000; -112.670000;   -2.355000;   49.928000; -110.970000;   -4.532300;   47.184000; -112.410000;  -10.177000;   40.212000
237.6; -111.980000;   -9.659200;   45.954000; -107.000000;   -4.192900;   53.346000; -107.930000;   -1.933400;   56.120000; -100.070000;   -0.514460;   59.237000
238.8;  -84.788000;   -0.048080;   64.111000;  -96.907000;   -1.336700;   61.652000;  -97.313000;   -3.788500;   58.935000; -108.170000;   -9.037100;   51.621000
240.0;  -99.763000;   -8.305900;   56.597000;  -83.062000;   -3.307500;   63.254000;  -81.530000;   -0.911390;   65.644000;  -68.342000;    0.425770;   67.411000
241.2;  -55.754000;    0.776020;   69.305000;  -66.457000;   -0.495790;   68.184000;  -68.221000;   -2.842600;   66.153000;  -87.311000;   -7.660300;   60.417000
242.4;  -73.604000;   -6.919500;   63.137000;  -56.636000;   -2.366200;   67.946000;  -55.684000;   -0.126490;   69.700000;  -49.218000;    1.047100;   70.385000
243.6;  -49.007000;    1.254000;   71.425000;  -51.210000;    0.210320;   70.707000;  -50.769000;   -1.951700;   69.071000;  -62.470000;   -6.199500;   64.839000
244.8;  -56.599000;   -5.509500;   65.930000;  -50.588000;   -1.531600;   70.254000;  -52.360000;    0.445190;   71.891000;  -52.656000;    1.429500;   73.058000
246.0;  -56.524000;    1.616900;   75.540000;  -56.066000;    0.722630;   73.847000;  -53.453000;   -1.188800;   71.993000;  -55.655000;   -4.876200;   67.006000
247.2;  -57.388000;   -4.221600;   68.560000;  -56.274000;   -0.809820;   74.449000;  -59.007000;    1.022800;   76.525000;  -57.125000;    1.872300;   78.654000
248.4;  -51.233000;    2.207700;   82.014000;  -57.886000;    1.438100;   79.756000;  -55.948000;   -0.469650;   77.539000;  -59.259000;   -3.511000;   70.853000
249.6;  -58.338000;   -2.741800;   73.666000;  -49.228000;   -0.042479;   80.690000;  -49.666000;    1.850700;   82.898000;  -37.088000;    2.619100;   84.815000
250.8;  -17.882000;    3.029900;   86.302000;  -33.679000;    2.363700;   85.085000;  -35.025000;    0.442200;   83.060000;  -51.753000;   -1.928500;   76.466000
252.0;  -38.990000;   -1.120500;   78.502000;  -17.619000;    0.975420;   84.213000;  -15.517000;    2.821200;   85.819000;   -0.486810;    3.410000;   86.229000
253.2;    9.834300;    3.636700;   85.039000;   -0.742280;    3.191600;   85.201000;   -2.377000;    1.439200;   83.877000;  -23.312000;   -0.274740;   79.405000
254.4;   -8.586000;    0.541150;   79.112000;    7.077600;    1.907100;   82.646000;    7.261300;    3.458200;   83.681000;   12.442000;    3.761400;   83.388000
255.6;    9.438500;    3.856200;   82.096000;    8.218700;    3.683000;   82.134000;    9.632400;    2.311800;   81.175000;    1.291200;    1.291700;   77.908000
256.8;    4.789400;    1.996700;   76.479000;    7.350300;    2.696800;   80.078000;    4.975600;    3.916700;   81.170000;    5.275400;    3.982800;   81.702000
258.0;    4.615700;    4.149700;   82.056000;    2.084400;    4.160200;   81.042000;    4.454700;    3.007100;   79.836000;    4.061500;    2.684100;   75.433000
259.2;    2.626100;    3.358900;   75.028000;    4.893800;    3.358100;   80.120000;    3.401300;    4.472400;   81.469000;   10.727000;    4.361100;   82.623000
260.4;   24.830000;    4.659400;   82.594000;   11.903000;    4.820000;   81.741000;   11.578000;    3.691200;   80.518000;    3.856200;    4.066800;   75.090000
261.6;   10.682000;    4.868500;   75.168000;   25.509000;    4.126200;   80.112000;   27.397000;    5.209500;   81.161000;   44.274000;    4.872300;   81.273000
262.8;   61.838000;    5.095200;   78.299000;   45.909000;    5.551900;   79.014000;   43.209000;    4.506300;   78.421000;   23.541000;    5.657500;   74.660000
264.0;   39.630000;    6.398400;   72.969000;   58.713000;    4.989900;   75.386000;   60.809000;    5.806200;   75.567000;   71.573000;    5.331900;   74.109000
265.2;   73.139000;    5.362900;   69.759000;   68.191000;    5.933900;   71.421000;   67.490000;    5.306900;   71.535000;   53.965000;    7.107500;   70.057000
266.4;   63.185000;    7.740000;   66.286000;   69.302000;    5.610500;   67.320000;   68.476000;    6.039500;   67.111000;   69.675000;    5.308000;   65.717000
267.6;   64.795000;    5.264700;   62.448000;   64.767000;    6.065300;   63.314000;   66.555000;    5.855800;   63.480000;   66.188000;    8.310600;   62.225000
268.8;   64.830000;    8.826600;   58.547000;   62.897000;    6.033200;   60.549000;   60.940000;    6.107100;   60.534000;   62.239000;    5.301300;   60.091000
270.0;   65.074000;    5.366700;   58.199000;   60.346000;    6.204200;   58.405000;   61.707000;    6.223600;   58.286000;   62.502000;    9.311300;   55.695000
271.2;   62.062000;    9.818100;   53.491000;   65.203000;    6.399100;   56.416000;   65.091000;    6.382700;   56.462000;   74.338000;    5.507400;   56.086000
272.4;   89.220000;    5.644100;   52.912000;   76.229000;    6.553300;   53.829000;   74.800000;    6.611600;   54.009000;   65.777000;   10.380000;   51.408000
273.6;   74.885000;   10.976000;   48.930000;   89.063000;    6.758700;   50.617000;   91.543000;    6.740400;   49.948000;  105.420000;    5.747200;   48.191000
274.8;  116.780000;    5.774400;   42.113000;  106.300000;    6.787100;   44.560000;  103.830000;    7.043300;   45.652000;   87.999000;   11.495000;   45.561000
276.0;  101.550000;   12.012000;   40.965000;  114.120000;    7.190400;   39.659000;  115.560000;    6.817000;   38.219000;  121.250000;    5.694900;   35.227000
277.2;  120.700000;    5.523100;   28.364000;  118.590000;    6.675400;   31.400000;  118.340000;    7.234800;   33.169000;  111.350000;   12.357000;   35.473000
278.4;  116.370000;   12.622000;   29.236000;  118.130000;    7.309100;   26.344000;  117.650000;    6.467500;   24.525000;  117.770000;    5.299800;   21.564000
279.6;  114.100000;    5.046300;   15.202000;  114.740000;    6.179600;   17.824000;  115.520000;    7.360300;   19.636000;  117.210000;   12.752000;   22.734000
280.8;  115.560000;   12.829000;   16.504000;  112.360000;    7.299800;   13.592000;  111.450000;    5.958100;   11.896000;  110.640000;    4.792000;    9.526900
282.0;  107.810000;    4.551100;    4.545500;  108.510000;    5.724800;    6.581300;  109.390000;    7.160500;    8.208800;  113.190000;   12.733000;   10.885000
283.2;  110.860000;   12.723000;    5.984100;  106.980000;    7.018600;    3.573200;  106.200000;    5.651600;    2.051100;  105.730000;    4.271500;    0.190460
284.4;  104.260000;    4.077700;   -3.956900;  104.500000;    5.390200;   -2.272900;  105.070000;    6.905500;   -0.798060;  108.810000;   12.721000;    1.453500
285.6;  107.220000;   12.668000;   -2.752600;  103.760000;    6.763900;   -4.931700;  103.420000;    5.204200;   -6.364800;  103.390000;    3.952200;   -7.988600
286.8;  103.180000;    3.774500;  -11.950000;  102.940000;    5.011500;  -10.357000;  103.080000;    6.638100;   -8.913200;  106.240000;   12.654000;   -6.657100
288.0;  105.830000;   12.554000;  -10.316000;  103.030000;    6.497700;  -12.797000;  103.150000;    4.827800;  -14.279000;  103.650000;    3.578000;  -15.949000
289.2;  104.610000;    3.423800;  -20.035000;  103.840000;    4.682600;  -18.257000;  103.460000;    6.370700;  -16.673000;  105.840000;   12.474000;  -13.922000
290.4;  106.390000;   12.318000;  -17.667000;  104.490000;    6.208300;  -20.828000;  105.100000;    4.560800;  -22.557000;  106.110000;    3.323000;  -24.584000
291.6;  108.150000;    3.143800;  -29.681000;  106.940000;    4.337600;  -27.422000;  105.970000;    6.081000;  -25.515000;  107.390000;   12.153000;  -21.744000
292.8;  108.870000;   11.936000;  -26.134000;  107.930000;    5.883800;  -30.584000;  109.140000;    4.128800;  -32.704000;  110.470000;    2.892100;  -35.359000
294.0;  112.290000;    2.612800;  -41.463000;  111.340000;    3.823000;  -38.509000;  109.830000;    5.729200;  -36.153000;  110.610000;   11.659000;  -30.837000
295.2;  112.290000;   11.319000;  -35.789000;  111.300000;    5.383500;  -41.936000;  112.880000;    3.518700;  -44.444000;  112.440000;    2.307400;  -47.712000
296.4;  108.900000;    1.910800;  -54.134000;  112.310000;    3.084400;  -50.847000;  110.820000;    5.195300;  -48.123000;  113.410000;   10.900000;  -41.287000
297.6;  112.890000;   10.379000;  -47.117000;  106.760000;    4.848700;  -54.371000;  107.400000;    2.664700;  -57.085000;   99.217000;    1.434300;  -60.137000
298.8;   83.811000;    0.942560;  -64.944000;   96.085000;    2.213300;  -62.481000;   96.848000;    4.448800;  -59.927000;  109.080000;    9.687000;  -52.777000
300.0;  100.320000;    9.042500;  -57.755000;   82.437000;    3.986600;  -64.266000;   80.682000;    1.684100;  -66.505000;   67.251000;    0.464600;  -68.235000
301.2;   54.933000;    0.125930;  -70.072000;   65.764000;    1.223000;  -69.036000;   67.548000;    3.578800;  -67.056000;   87.788000;    8.242600;  -61.636000
302.4;   73.784000;    7.548800;  -64.348000;   56.061000;    3.099300;  -68.837000;   55.206000;    0.946290;  -70.462000;   48.821000;   -0.135460;  -71.176000
303.6;   48.942000;   -0.344940;  -72.248000;   50.976000;    0.602390;  -71.513000;   50.414000;    2.689000;  -69.959000;   62.402000;    6.914800;  -65.941000
304.8;   56.513000;    6.248300;  -67.000000;   50.429000;    2.275200;  -71.158000;   52.321000;    0.352210;  -72.770000;   52.772000;   -0.543590;  -73.970000
306.0;   56.600000;   -0.733280;  -76.562000;   56.143000;    0.043778;  -74.792000;   53.447000;    1.956700;  -72.928000;   55.578000;    5.625800;  -68.070000
307.2;   57.358000;    5.008900;  -69.617000;   56.215000;    1.625500;  -75.395000;   58.970000;   -0.254570;  -77.507000;   56.914000;   -0.996900;  -79.752000
308.4;   50.317000;   -1.357600;  -83.141000;   57.570000;   -0.668300;  -80.796000;   55.684000;    1.261800;  -78.501000;   59.193000;    4.323000;  -71.863000
309.6;   58.106000;    3.558300;  -74.682000;   48.638000;    0.818220;  -81.669000;   48.795000;   -1.092100;  -83.887000;   35.327000;   -1.777300;  -85.911000
310.8;   15.800000;   -2.220200;  -87.253000;   32.648000;   -1.641400;  -86.070000;   34.293000;    0.329060;  -84.016000;   51.274000;    2.749800;  -77.432000
312.0;   38.568000;    1.901100;  -79.467000;   16.658000;   -0.193330;  -85.052000;   14.300000;   -2.092800;  -86.661000;   -1.422900;   -2.550600;  -87.046000
313.2;  -11.225000;   -2.784800;  -85.748000;   -0.308680;   -2.476700;  -85.977000;    1.517000;   -0.678010;  -84.755000;   22.677000;    1.039600;  -80.342000
314.4;    7.957300;    0.222640;  -79.995000;   -7.737900;   -1.136200;  -83.445000;   -7.981600;   -2.740700;  -84.409000;  -13.247000;   -2.969200;  -84.079000
315.6;   -9.845500;   -3.064800;  -82.803000;   -8.603600;   -2.990100;  -82.821000;   -9.939700;   -1.549200;  -81.892000;   -1.789100;   -0.526410;  -78.737000
316.8;   -5.059600;   -1.229900;  -77.260000;   -7.500000;   -1.906100;  -80.858000;   -5.211000;   -3.184300;  -81.887000;   -5.689000;   -3.193600;  -82.418000
318.0;   -5.373800;   -3.364700;  -82.786000;   -2.415500;   -3.443100;  -81.785000;   -4.641800;   -2.238800;  -80.575000;   -4.159100;   -1.917700;  -76.228000
319.2;   -2.651200;   -2.595400;  -75.820000;   -5.284300;   -2.570800;  -80.899000;   -4.014300;   -3.734000;  -82.203000;  -12.009000;   -3.629400;  -83.282000
320.4;  -26.638000;   -3.919200;  -83.157000;  -12.858000;   -4.095000;  -82.455000;  -12.435000;   -2.940100;  -81.167000;   -3.999300;   -3.300800;  -75.816000
321.6;  -10.984000;   -4.097300;  -75.887000;  -26.599000;   -3.335500;  -80.771000;  -28.737000;   -4.475200;  -81.703000;  -46.127000;   -4.167100;  -81.656000
322.8;  -63.293000;   -4.387000;  -78.534000;  -47.297000;   -4.822100;  -79.427000;  -44.437000;   -3.773500;  -78.976000;  -24.226000;   -4.912000;  -75.263000
324.0;  -40.251000;   -5.666300;  -73.534000;  -59.670000;   -4.186900;  -75.901000;  -61.735000;   -5.049800;  -76.004000;  -72.347000;   -4.527100;  -74.412000
325.2;  -73.293000;   -4.563700;  -70.088000;  -68.525000;   -5.163000;  -71.758000;  -68.063000;   -4.496100;  -71.998000;  -54.528000;   -6.382900;  -70.610000
326.4;  -63.582000;   -6.997900;  -66.843000;  -69.639000;   -4.785800;  -67.813000;  -68.530000;   -5.199600;  -67.531000;  -69.482000;   -4.505800;  -66.089000
327.6;  -64.534000;   -4.485200;  -62.927000;  -64.645000;   -5.275000;  -63.752000;  -66.656000;   -5.013200;  -63.926000;  -66.410000;   -7.516200;  -62.819000
328.8;  -64.974000;   -8.032600;  -59.133000;  -62.956000;   -5.195800;  -60.967000;  -60.838000;   -5.344400;  -60.984000;  -62.214000;   -4.494200;  -60.651000
330.0;  -65.510000;   -4.572200;  -58.771000;  -60.402000;   -5.438200;  -58.895000;  -61.759000;   -5.328000;  -58.782000;  -62.582000;   -8.524400;  -56.226000
331.2;  -62.126000;   -9.043400;  -54.012000;  -65.417000;   -5.522200;  -56.896000;  -65.409000;   -5.616700;  -56.960000;  -75.294000;   -4.725300;  -56.613000
332.4;  -90.533000;   -4.875500;  -53.372000;  -76.729000;   -5.813100;  -54.307000;  -75.078000;   -5.731300;  -54.526000;  -65.801000;   -9.553900;  -51.992000
333.6;  -74.968000;  -10.139000;  -49.509000;  -89.600000;   -6.049800;  -50.944000;  -92.262000;   -5.950500;  -50.391000; -106.880000;   -4.836200;  -48.608000
334.8; -117.920000;   -4.869100;  -42.382000; -106.930000;   -6.062100;  -44.884000; -104.330000;   -6.255900;  -45.994000;  -88.241000;  -10.604000;  -46.105000
336.0; -101.720000;  -11.148000;  -41.440000; -114.470000;   -6.413900;  -40.047000; -115.980000;   -6.004600;  -38.496000; -121.850000;   -4.863100;  -35.447000
337.2; -121.000000;   -4.683900;  -28.561000; -118.780000;   -5.876200;  -31.682000; -118.440000;   -6.506500;  -33.472000; -111.400000;  -11.551000;  -35.876000
338.4; -116.220000;  -11.794000;  -29.642000; -118.200000;   -6.528900;  -26.688000; -117.710000;   -5.689800;  -24.836000; -117.880000;   -4.494200;  -21.816000
339.6; -114.150000;   -4.225000;  -15.477000; -114.710000;   -5.418000;  -18.149000; -115.630000;   -6.459400;  -20.029000; -116.920000;  -11.876000;  -23.155000
340.8; -115.220000;  -11.938000;  -16.952000; -112.470000;   -6.340300;  -13.990000; -111.480000;   -5.179800;  -12.230000; -110.720000;   -3.969600;   -9.828500
342.0; -107.930000;   -3.698500;   -4.901800; -108.540000;   -4.966900;   -6.995200; -109.480000;   -6.265300;   -8.664100; -112.790000;  -11.924000;  -11.362000
343.2; -110.460000;  -11.896000;   -6.504500; -107.120000;   -6.161800;   -4.057800; -106.400000;   -4.630900;   -2.506800; -105.860000;   -3.465100;   -0.586310
344.4; -104.410000;   -3.268300;    3.543700; -104.620000;   -4.502000;    1.818700; -105.210000;   -6.056200;    0.305760; -108.420000;  -11.873000;   -1.974300
345.6; -106.860000;  -11.798000;    2.232200; -103.970000;   -5.882900;    4.449800; -103.610000;   -4.344800;    5.881000; -103.610000;   -3.030500;    7.579400
346.8; -103.430000;   -2.857600;   11.526000; -103.140000;   -4.151800;    9.895000; -103.340000;   -5.682000;    8.387200; -105.870000;  -11.717000;    6.109800
348.0; -105.450000;  -11.535000;    9.782300; -103.310000;   -5.490100;   12.308000; -103.380000;   -3.932600;   13.826000; -103.890000;   -2.747800;   15.555000
349.2; -104.880000;   -2.588700;   19.649000; -104.100000;   -3.781700;   17.823000; -103.770000;   -5.468000;   16.183000; -105.480000;  -11.500000;   13.393000
350.4; -106.050000;  -11.342000;   17.126000; -104.810000;   -5.320900;   20.356000; -105.420000;   -3.629000;   22.127000; -106.460000;   -2.419600;   24.187000
351.6; -108.540000;   -2.225000;   29.335000; -107.280000;   -3.429600;   27.011000; -106.360000;   -5.170400;   25.040000; -107.160000;  -11.031000;   21.171000
352.8; -108.640000;  -10.801000;   25.544000; -108.320000;   -4.964700;   30.121000; -109.540000;   -3.182400;   32.296000; -110.810000;   -1.996100;   35.003000
354.0; -112.600000;   -1.706400;   41.144000; -111.840000;   -2.801200;   38.108000; -110.320000;   -4.745500;   35.687000; -110.330000;  -10.674000;   30.315000
355.2; -112.030000;  -10.335000;   35.282000; -111.710000;   -4.493800;   41.495000; -113.210000;   -2.594300;   44.057000; -112.660000;   -1.334100;   47.418000
356.4; -108.860000;   -0.914750;   53.824000; -112.520000;   -2.130600;   50.457000; -111.270000;   -4.239900;   47.704000; -113.270000;   -9.850400;   40.734000
357.6; -112.800000;   -9.330200;   46.575000; -107.150000;   -3.815400;   53.927000; -107.440000;   -1.587600;   56.703000;  -98.843000;   -0.462560;   59.748000
358.8;  -83.110000;    0.037430;   64.496000;  -95.729000;   -1.172800;   62.043000;  -96.900000;   -3.437500;   59.488000; -108.840000;   -8.713300;   52.271000
